Timestamp,TP9,AF7,AF8,TP10,AUX
1742783537.5926046,-33.69140625,2.9296875,-47.36328125,-17.578125,0.0
1742783537.59651,-124.51171875,-260.25390625,-75.1953125,-101.5625,0.0
1742783537.6004152,-26.3671875,-82.03125,-53.22265625,-29.78515625,0.0
1742783537.6043205,78.125,213.37890625,-20.01953125,68.359375,0.0
1742783537.6082258,12.20703125,94.23828125,-36.1328125,16.11328125,0.0
1742783537.6121314,-125.9765625,-297.36328125,-84.47265625,-113.28125,0.0
1742783537.6160367,-77.63671875,-246.09375,-74.70703125,-81.54296875,0.0
1742783537.619942,69.3359375,59.08203125,-33.203125,57.12890625,0.0
1742783537.6238472,48.33984375,137.6953125,-33.69140625,37.109375,0.0
1742783537.6277525,-116.2109375,-70.80078125,-60.546875,-94.23828125,0.0
1742783537.6316578,-112.79296875,-245.1171875,-61.03515625,-92.7734375,0.0
1742783537.6355631,39.55078125,60.546875,-21.484375,33.203125,0.0
1742783537.6394777,74.21875,303.7109375,-2.9296875,66.89453125,0.0
1742783537.643383,-47.36328125,-2.44140625,-40.0390625,-51.26953125,0.0
1742783537.6472883,-101.07421875,-333.0078125,-68.359375,-100.5859375,0.0
1742783537.6511939,10.25390625,-89.84375,-30.2734375,-4.39453125,0.0
1742783537.6550992,89.35546875,267.08984375,5.859375,79.1015625,0.0
1742783537.6590044,-21.97265625,7.32421875,-31.25,0.0,0.0
1742783537.6629097,-135.7421875,-404.78515625,-74.21875,-106.4453125,0.0
1742783537.666815,-50.78125,-313.96484375,-50.29296875,-39.55078125,0.0
1742783537.6707203,63.96484375,229.4921875,5.37109375,64.94140625,0.0
1742783537.6746256,10.7421875,292.48046875,1.953125,35.15625,0.0
1742783537.678531,-105.95703125,-274.4140625,-55.17578125,-81.54296875,0.0
1742783537.6824362,-69.3359375,-294.921875,-49.8046875,-78.61328125,0.0
1742783537.6863499,62.5,216.796875,10.25390625,35.64453125,0.0
1742783537.6902552,54.19921875,315.4296875,13.671875,51.26953125,0.0
1742783537.6941605,-87.890625,-173.33984375,-40.52734375,-58.10546875,0.0
1742783537.6980658,-103.02734375,-337.40234375,-52.24609375,-83.984375,0.0
1742783537.701971,30.2734375,82.03125,-7.32421875,26.3671875,0.0
1742783537.7058764,93.75,285.15625,14.16015625,79.58984375,0.0
1742783537.7097816,-34.1796875,-182.12890625,-39.0625,-25.87890625,0.0
1742783537.713687,-126.46484375,-445.80078125,-62.98828125,-90.33203125,0.0
1742783537.7175922,-20.99609375,9.27734375,-11.71875,-8.7890625,0.0
1742783537.7214975,88.8671875,283.203125,12.6953125,72.265625,0.0
1742783537.7254028,6.8359375,78.125,-10.7421875,11.23046875,0.0
1742783537.7293081,-119.62890625,-253.90625,-48.33984375,-100.5859375,0.0
1742783537.733221,-57.12890625,-96.6796875,-24.4140625,-53.7109375,0.0
1742783537.7371264,64.453125,250.9765625,22.94921875,66.89453125,0.0
1742783537.7410316,22.94921875,181.15234375,6.8359375,44.921875,0.0
1742783537.744937,-117.67578125,-183.10546875,-36.62109375,-72.265625,0.0
1742783537.7488422,-103.515625,-219.7265625,-37.59765625,-83.984375,0.0
1742783537.7527475,60.546875,81.54296875,-16.6015625,42.96875,0.0
1742783537.7566528,107.421875,112.79296875,-16.11328125,93.75,0.0
1742783537.7605581,-78.61328125,-125.0,-33.203125,-58.10546875,0.0
1742783537.7644634,-172.8515625,-206.0546875,-34.66796875,-146.97265625,0.0
1742783537.7683687,-38.57421875,17.578125,-8.7890625,-41.015625,0.0
1742783537.772274,45.41015625,215.8203125,13.18359375,29.78515625,0.0
1742783537.7761793,-85.9375,-41.9921875,-17.578125,-74.70703125,0.0
1742783537.780091,-189.453125,-312.01171875,-49.8046875,-163.0859375,0.0
1742783537.7839963,-83.984375,-99.609375,-21.484375,-83.984375,0.0
1742783537.7879016,45.8984375,270.01953125,17.08984375,23.4375,0.0
1742783537.791807,-34.1796875,187.98828125,-5.37109375,-26.85546875,0.0
1742783537.7957122,-169.43359375,-225.5859375,-56.15234375,-132.8125,0.0
1742783537.7996175,-84.9609375,-343.26171875,-55.6640625,-86.9140625,0.0
1742783537.8035228,49.31640625,52.734375,-9.27734375,22.94921875,0.0
1742783537.8074281,15.625,309.5703125,7.8125,12.20703125,0.0
1742783537.8113334,-123.53515625,-148.4375,-42.96875,-99.609375,0.0
1742783537.8152387,-117.1875,-320.3125,-55.17578125,-98.14453125,0.0
1742783537.819144,29.296875,113.28125,-1.953125,11.23046875,0.0
1742783537.8230493,56.640625,332.51953125,19.53125,50.78125,0.0
1742783537.8269672,-95.703125,-81.0546875,-34.1796875,-61.5234375,0.0
1742783537.8308725,-137.6953125,-380.859375,-66.89453125,-116.69921875,0.0
1742783537.8347778,-3.90625,-70.80078125,-30.2734375,-18.06640625,0.0
1742783537.8386831,60.546875,300.78125,6.34765625,48.33984375,0.0
1742783537.8425884,-53.22265625,24.4140625,-22.4609375,-34.66796875,0.0
1742783537.8464937,-151.3671875,-441.89453125,-66.89453125,-111.81640625,0.0
1742783537.850399,-54.19921875,-186.5234375,-38.57421875,-40.0390625,0.0
1742783537.8543043,68.359375,311.03515625,14.16015625,51.26953125,0.0
1742783537.8582096,0.48828125,139.16015625,-6.34765625,3.41796875,0.0
1742783537.862115,-137.6953125,-373.046875,-64.94140625,-102.5390625,0.0
1742783537.8660202,-97.16796875,-270.5078125,-53.7109375,-79.58984375,0.0
1742783537.8699255,43.9453125,206.0546875,-0.48828125,33.203125,0.0
1742783537.8738427,34.1796875,257.32421875,0.9765625,39.0625,0.0
1742783537.877748,-109.375,-172.8515625,-52.24609375,-79.1015625,0.0
1742783537.8816533,-114.74609375,-248.046875,-53.22265625,-83.984375,0.0
1742783537.8855586,17.08984375,111.81640625,-14.16015625,22.4609375,0.0
1742783537.8894641,66.89453125,232.91015625,-6.8359375,50.78125,0.0
1742783537.8933694,-67.87109375,-152.34375,-46.38671875,-50.78125,0.0
1742783537.8972747,-142.08984375,-355.46875,-70.3125,-113.76953125,0.0
1742783537.90118,-14.6484375,24.4140625,-33.69140625,-31.25,0.0
1742783537.9050853,84.9609375,181.15234375,-13.671875,63.96484375,0.0
1742783537.9089906,-22.4609375,-62.01171875,-39.0625,-12.20703125,0.0
1742783537.912896,-142.08984375,-195.3125,-61.03515625,-125.48828125,0.0
1742783537.9168012,-53.22265625,-96.6796875,-43.9453125,-57.12890625,0.0
1742783537.9207177,87.890625,246.58203125,-5.37109375,58.10546875,0.0
1742783537.924623,33.69140625,246.58203125,-20.5078125,24.4140625,0.0
1742783537.9285283,-116.69921875,-158.69140625,-71.2890625,-98.6328125,0.0
1742783537.9324336,-81.0546875,-227.5390625,-73.2421875,-89.35546875,0.0
1742783537.936339,66.40625,125.0,-23.92578125,37.109375,0.0
1742783537.9402442,75.1953125,229.4921875,-12.6953125,51.7578125,0.0
1742783537.9441495,-83.49609375,-173.33984375,-64.453125,-75.68359375,0.0
1742783537.9480548,-115.234375,-367.1875,-80.078125,-104.00390625,0.0
1742783537.95196,32.71484375,-75.1953125,-41.50390625,10.7421875,0.0
1742783537.9558654,79.1015625,326.66015625,-8.30078125,60.546875,0.0
1742783537.9597707,-55.17578125,52.734375,-48.828125,-48.828125,0.0
1742783537.963676,-131.34765625,-391.11328125,-84.9609375,-119.62890625,0.0
1742783537.9675915,-19.53125,-85.44921875,-46.38671875,-49.8046875,0.0
1742783537.9714968,82.03125,350.5859375,-5.37109375,37.109375,0.0
1742783537.975402,-2.44140625,173.33984375,-32.2265625,-4.39453125,0.0
1742783537.9793074,-117.67578125,-296.875,-77.63671875,-107.91015625,0.0
1742783537.9832127,-53.22265625,-208.0078125,-56.15234375,-64.453125,0.0
1742783537.987118,78.125,194.3359375,-11.23046875,45.8984375,0.0
1742783537.9910233,39.55078125,198.73046875,-18.06640625,19.04296875,0.0
1742783537.9949286,-113.28125,-347.16796875,-75.1953125,-93.75,0.0
1742783537.998834,-100.09765625,-388.671875,-71.2890625,-94.7265625,0.0
1742783538.0027392,47.36328125,194.82421875,-12.6953125,10.7421875,0.0
1742783538.0066445,63.4765625,272.94921875,-11.23046875,41.9921875,0.0
1742783538.0105498,-94.23828125,-122.55859375,-55.6640625,-84.9609375,0.0
1742783538.0144649,-124.51171875,-272.4609375,-61.5234375,-126.953125,0.0
1742783538.0183702,22.94921875,84.9609375,-15.13671875,-5.859375,0.0
1742783538.0222754,96.19140625,306.640625,6.34765625,63.4765625,0.0
1742783538.0261807,-29.296875,-5.37109375,-28.80859375,-30.2734375,0.0
1742783538.030086,-118.1640625,-298.828125,-57.6171875,-115.72265625,0.0
1742783538.0339913,-18.06640625,-112.3046875,-31.25,-31.73828125,0.0
1742783538.0378966,90.8203125,205.078125,-5.859375,72.265625,0.0
1742783538.041802,20.5078125,-1.46484375,-37.109375,22.4609375,0.0
1742783538.0457072,-122.0703125,-270.99609375,-68.359375,-94.23828125,0.0
1742783538.0496125,-69.3359375,-98.14453125,-46.38671875,-66.40625,0.0
1742783538.0535178,84.9609375,169.921875,-8.7890625,62.01171875,0.0
1742783538.057423,48.33984375,204.1015625,-11.71875,34.1796875,0.0
1742783538.0613368,-111.81640625,-165.0390625,-60.546875,-92.28515625,0.0
1742783538.065242,-105.95703125,-253.41796875,-65.91796875,-85.9375,0.0
1742783538.0691473,41.9921875,107.91015625,-20.99609375,28.80859375,0.0
1742783538.0730526,74.21875,301.26953125,-7.32421875,62.98828125,0.0
1742783538.076958,-80.56640625,-20.99609375,-46.875,-44.921875,0.0
1742783538.0808632,-139.16015625,-322.75390625,-71.77734375,-103.515625,0.0
1742783538.0847685,3.90625,-169.921875,-43.9453125,2.9296875,0.0
1742783538.0886738,91.30859375,151.85546875,-10.25390625,75.1953125,0.0
1742783538.0925791,-35.15625,142.08984375,-22.4609375,-29.296875,0.0
1742783538.0964844,-134.27734375,-248.046875,-62.98828125,-106.4453125,0.0
1742783538.1003897,-32.2265625,-139.6484375,-44.921875,-26.3671875,0.0
1742783538.104295,83.49609375,288.57421875,-5.859375,63.4765625,0.0
1742783538.108209,13.18359375,222.16796875,-19.53125,12.6953125,0.0
1742783538.1121144,-115.234375,-237.79296875,-61.5234375,-92.7734375,0.0
1742783538.1160197,-62.5,-292.96875,-57.12890625,-66.89453125,0.0
1742783538.119925,75.68359375,143.5546875,-6.8359375,41.9921875,0.0
1742783538.1238303,62.01171875,286.62109375,-2.44140625,42.96875,0.0
1742783538.1277356,-94.7265625,-212.890625,-56.15234375,-69.82421875,0.0
1742783538.131641,-104.00390625,-470.21484375,-71.2890625,-76.66015625,0.0
1742783538.1355462,23.92578125,52.734375,-19.04296875,11.71875,0.0
1742783538.1394515,54.19921875,410.15625,6.34765625,44.43359375,0.0
1742783538.1433568,-80.078125,-41.50390625,-36.62109375,-48.828125,0.0
1742783538.147262,-148.92578125,-414.55078125,-65.91796875,-102.05078125,0.0
1742783538.1511674,-19.53125,-86.42578125,-29.296875,0.0,0.0
1742783538.1550806,82.51953125,338.37890625,15.13671875,70.80078125,0.0
1742783538.1589859,-22.94921875,86.9140625,-17.08984375,-9.27734375,0.0
1742783538.1628911,-145.99609375,-321.2890625,-67.87109375,-114.2578125,0.0
1742783538.1667964,-57.6171875,-117.1875,-35.15625,-65.91796875,0.0
1742783538.1707017,67.87109375,262.20703125,7.8125,40.0390625,0.0
1742783538.174607,27.34375,64.94140625,-24.90234375,7.8125,0.0
1742783538.1785123,-105.95703125,-395.5078125,-74.21875,-104.4921875,0.0
1742783538.1824176,-51.26953125,-256.8359375,-55.17578125,-65.4296875,0.0
1742783538.186323,107.91015625,206.0546875,-7.32421875,67.87109375,0.0
1742783538.1902282,51.26953125,193.84765625,-7.8125,29.78515625,0.0
1742783538.1941335,-147.94921875,-185.05859375,-47.8515625,-134.765625,0.0
1742783538.1980388,-171.875,-241.2109375,-59.08203125,-147.4609375,0.0
1742783538.2019575,-32.71484375,61.03515625,-20.01953125,-31.73828125,0.0
1742783538.2058628,2.44140625,271.97265625,15.625,0.0,0.0
1742783538.209768,-132.32421875,1.46484375,-13.18359375,-104.98046875,0.0
1742783538.2136734,-209.47265625,-275.87890625,-45.8984375,-176.26953125,0.0
1742783538.2175786,-85.44921875,-73.2421875,-22.94921875,-88.37890625,0.0
1742783538.221484,35.15625,187.5,7.32421875,11.23046875,0.0
1742783538.2253892,-53.7109375,96.19140625,-5.859375,-59.08203125,0.0
1742783538.2292945,-171.38671875,-233.3984375,-42.96875,-160.64453125,0.0
1742783538.2331998,-94.7265625,-252.44140625,-33.203125,-93.75,0.0
1742783538.2371051,53.22265625,108.88671875,8.30078125,30.2734375,0.0
1742783538.2410104,11.23046875,199.21875,6.34765625,10.7421875,0.0
1742783538.2449157,-139.16015625,-171.875,-39.55078125,-117.1875,0.0
1742783538.248833,-104.00390625,-267.578125,-50.78125,-104.98046875,0.0
1742783538.2527382,43.9453125,120.60546875,-4.8828125,14.6484375,0.0
1742783538.2566435,58.59375,359.86328125,14.6484375,31.25,0.0
1742783538.2605488,-93.26171875,-50.78125,-42.48046875,-84.47265625,0.0
1742783538.2644541,-122.0703125,-323.73046875,-63.4765625,-108.88671875,0.0
1742783538.2683594,24.4140625,-15.625,-19.53125,2.9296875,0.0
1742783538.2722647,70.80078125,277.83203125,5.37109375,52.24609375,0.0
1742783538.2761703,-59.08203125,113.28125,-25.390625,-51.26953125,0.0
1742783538.2800756,-138.671875,-413.57421875,-73.73046875,-130.859375,0.0
1742783538.2839808,-36.1328125,-259.765625,-48.828125,-49.31640625,0.0
1742783538.2878861,62.5,319.3359375,0.9765625,39.55078125,0.0
1742783538.2917914,-14.6484375,124.51171875,-25.87890625,-16.11328125,0.0
1742783538.2957075,-148.92578125,-280.76171875,-70.3125,-128.41796875,0.0
1742783538.2996128,-89.84375,-158.69140625,-55.17578125,-88.37890625,0.0
1742783538.303518,54.6875,243.65234375,-6.8359375,21.97265625,0.0
1742783538.3074234,33.69140625,236.81640625,-13.671875,16.6015625,0.0
1742783538.3113286,-115.234375,-242.67578125,-70.80078125,-113.28125,0.0
1742783538.315234,-115.72265625,-371.58203125,-77.63671875,-136.23046875,0.0
1742783538.3191392,24.4140625,86.42578125,-28.3203125,-8.30078125,0.0
1742783538.3230448,64.453125,283.69140625,-12.20703125,44.43359375,0.0
1742783538.32695,-81.54296875,-221.6796875,-62.5,-68.84765625,0.0
1742783538.3308554,-147.4609375,-333.49609375,-72.75390625,-126.46484375,0.0
1742783538.3347607,-3.90625,12.20703125,-34.66796875,-13.18359375,0.0
1742783538.338666,83.984375,214.84375,-6.34765625,69.82421875,0.0
1742783538.3425813,-40.52734375,33.69140625,-34.1796875,-31.25,0.0
1742783538.3464866,-140.625,-314.94140625,-74.70703125,-130.859375,0.0
1742783538.3503919,-45.8984375,-125.48828125,-50.78125,-58.59375,0.0
1742783538.3542972,70.80078125,246.09375,-13.671875,48.828125,0.0
1742783538.3582025,5.859375,114.2578125,-28.80859375,2.44140625,0.0
1742783538.3621078,-125.9765625,-319.3359375,-71.77734375,-113.28125,0.0
1742783538.366013,-84.47265625,-261.71875,-59.08203125,-89.35546875,0.0
1742783538.3699183,62.01171875,28.3203125,-26.3671875,32.2265625,0.0
1742783538.3738236,53.22265625,119.62890625,-21.97265625,44.43359375,0.0
1742783538.377729,-110.83984375,-74.21875,-52.734375,-95.703125,0.0
1742783538.3816342,-110.3515625,-256.8359375,-60.05859375,-101.07421875,0.0
1742783538.3855395,42.48046875,17.08984375,-19.04296875,30.2734375,0.0
1742783538.3894546,102.5390625,296.38671875,-4.8828125,79.58984375,0.0
1742783538.39336,-44.43359375,24.90234375,-41.9921875,-39.0625,0.0
1742783538.3972652,-145.01953125,-325.1953125,-66.89453125,-118.1640625,0.0
1742783538.4011705,-10.7421875,-135.7421875,-35.64453125,-9.765625,0.0
1742783538.4050758,89.84375,242.1875,0.9765625,84.47265625,0.0
1742783538.408981,-16.11328125,79.1015625,-20.5078125,5.37109375,0.0
1742783538.4128864,-129.39453125,-347.65625,-69.3359375,-103.515625,0.0
1742783538.4167917,-38.57421875,-307.12890625,-59.08203125,-38.0859375,0.0
1742783538.420697,78.61328125,222.16796875,0.0,65.4296875,0.0
1742783538.4246023,17.578125,317.3828125,1.46484375,29.78515625,0.0
1742783538.4285076,-114.2578125,-256.8359375,-59.5703125,-78.61328125,0.0
1742783538.4324129,-88.8671875,-287.59765625,-59.08203125,-72.75390625,0.0
1742783538.4363265,60.546875,228.02734375,-5.859375,37.109375,0.0
1742783538.4402318,68.359375,346.19140625,2.9296875,54.6875,0.0
1742783538.444137,-79.58984375,-144.53125,-47.36328125,-64.94140625,0.0
1742783538.4480424,-111.81640625,-348.6328125,-65.91796875,-100.5859375,0.0
1742783538.4519477,16.11328125,46.875,-20.5078125,14.6484375,0.0
1742783538.455853,78.61328125,266.6015625,-1.46484375,67.3828125,0.0
1742783538.4597583,-43.45703125,-172.8515625,-50.78125,-27.34375,0.0
1742783538.4636636,-128.41796875,-471.6796875,-80.078125,-105.95703125,0.0
1742783538.4675689,-24.90234375,1.46484375,-37.59765625,-41.015625,0.0
1742783538.4714742,87.40234375,339.84375,0.0,67.87109375,0.0
1742783538.4753795,-2.9296875,85.9375,-28.80859375,11.71875,0.0
1742783538.4792848,-142.08984375,-280.76171875,-75.1953125,-110.83984375,0.0
1742783538.4831977,-74.21875,-138.671875,-51.26953125,-63.4765625,0.0
1742783538.487103,71.2890625,210.9375,-7.32421875,59.5703125,0.0
1742783538.4910083,37.59765625,172.8515625,-17.578125,42.48046875,0.0
1742783538.4949136,-111.81640625,-199.70703125,-55.17578125,-82.51953125,0.0
1742783538.4988189,-105.95703125,-261.71875,-59.5703125,-91.796875,0.0
1742783538.5027242,41.015625,52.24609375,-20.5078125,27.83203125,0.0
1742783538.5066295,75.1953125,102.05078125,-15.13671875,64.453125,0.0
1742783538.5105348,-78.125,-140.13671875,-47.36328125,-60.546875,0.0
1742783538.51444,-129.8828125,-256.34765625,-56.640625,-117.67578125,0.0
1742783538.5183454,3.41796875,-54.19921875,-32.2265625,-10.25390625,0.0
1742783538.5222507,84.9609375,189.94140625,-2.44140625,68.359375,0.0
1742783538.526156,-18.5546875,-0.9765625,-24.4140625,1.953125,0.0
1742783538.5300677,-118.65234375,-265.625,-65.91796875,-94.7265625,0.0
1742783538.533973,-50.78125,-125.9765625,-52.734375,-70.80078125,0.0
1742783538.5378783,62.01171875,242.1875,-12.6953125,32.71484375,0.0
1742783538.5417836,15.625,192.87109375,-27.83203125,11.23046875,0.0
1742783538.5456889,-113.76953125,-233.3984375,-74.21875,-91.796875,0.0
1742783538.5495942,-61.5234375,-384.27734375,-83.49609375,-49.8046875,0.0
1742783538.5534995,78.125,27.83203125,-43.9453125,53.22265625,0.0
1742783538.5574048,56.15234375,338.8671875,-27.83203125,29.78515625,0.0
1742783538.56131,-91.30859375,-106.93359375,-79.58984375,-88.37890625,0.0
1742783538.5652153,-87.890625,-315.91796875,-91.796875,-89.35546875,0.0
1742783538.569121,71.2890625,88.37890625,-47.8515625,36.62109375,0.0
1742783538.5730262,105.95703125,289.55078125,-27.83203125,75.1953125,0.0
1742783538.576944,-50.29296875,-106.93359375,-68.359375,-45.8984375,0.0
1742783538.5808494,-111.81640625,-339.84375,-89.35546875,-100.09765625,0.0
1742783538.5847547,21.484375,19.04296875,-44.921875,-5.37109375,0.0
1742783538.58866,98.6328125,355.46875,-10.25390625,60.05859375,0.0
1742783538.5925653,-20.01953125,72.265625,-53.22265625,-14.6484375,0.0
1742783538.5964706,-117.67578125,-394.53125,-102.5390625,-108.3984375,0.0
1742783538.600376,-24.90234375,-170.41015625,-69.3359375,-45.41015625,0.0
1742783538.6042812,93.26171875,328.61328125,-15.625,68.84765625,0.0
1742783538.6081865,34.66796875,173.828125,-27.83203125,30.2734375,0.0
1742783538.6120918,-110.3515625,-357.421875,-82.51953125,-97.16796875,0.0
1742783538.615997,-93.75,-292.96875,-71.77734375,-81.0546875,0.0
1742783538.6199024,46.38671875,217.28515625,-11.23046875,46.875,0.0
1742783538.62382,34.66796875,254.8828125,-11.71875,39.0625,0.0
1742783538.6277254,-121.09375,-243.1640625,-71.77734375,-93.75,0.0
1742783538.6316307,-121.58203125,-316.89453125,-76.171875,-109.375,0.0
1742783538.635536,16.6015625,104.98046875,-22.4609375,9.27734375,0.0
1742783538.6394413,71.2890625,280.2734375,-2.9296875,63.96484375,0.0
1742783538.6433465,-63.4765625,-119.62890625,-50.78125,-54.19921875,0.0
1742783538.6472518,-132.8125,-345.21484375,-76.66015625,-108.88671875,0.0
1742783538.6511571,-8.7890625,17.08984375,-29.296875,-20.01953125,0.0
1742783538.6550624,91.30859375,169.43359375,-0.48828125,63.96484375,0.0
1742783538.6589677,-8.7890625,-62.01171875,-30.76171875,2.44140625,0.0
1742783538.662873,-145.5078125,-208.984375,-57.12890625,-124.0234375,0.0
1742783538.6667783,-67.87109375,-121.58203125,-40.52734375,-69.3359375,0.0
1742783538.6706948,85.44921875,215.33203125,-4.8828125,52.24609375,0.0
1742783538.6746001,28.80859375,223.14453125,-10.7421875,17.08984375,0.0
1742783538.6785054,-140.625,-176.7578125,-59.5703125,-103.02734375,0.0
1742783538.6824107,-102.05078125,-259.27734375,-62.01171875,-80.56640625,0.0
1742783538.686316,56.640625,73.2421875,-19.53125,37.109375,0.0
1742783538.6902213,61.5234375,217.28515625,-6.8359375,48.828125,0.0
1742783538.6941266,-91.796875,-146.97265625,-46.38671875,-73.2421875,0.0
1742783538.698032,-119.62890625,-359.86328125,-65.4296875,-103.515625,0.0
1742783538.7019374,12.20703125,-97.16796875,-33.69140625,8.7890625,0.0
1742783538.7058427,67.3828125,295.8984375,3.41796875,54.6875,0.0
1742783538.709748,-63.96484375,49.8046875,-27.34375,-40.52734375,0.0
1742783538.7136533,-155.76171875,-387.20703125,-66.40625,-109.86328125,0.0
1742783538.7175698,-28.3203125,-92.7734375,-31.73828125,-34.1796875,0.0
1742783538.7214751,94.7265625,344.7265625,14.6484375,60.546875,0.0
1742783538.7253804,-2.9296875,175.29296875,-11.23046875,0.9765625,0.0
1742783538.7292857,-137.20703125,-313.96484375,-65.4296875,-104.4921875,0.0
1742783538.733191,-70.80078125,-230.46875,-47.8515625,-52.734375,0.0
1742783538.7370963,81.0546875,187.98828125,2.9296875,59.08203125,0.0
1742783538.7410016,54.6875,187.01171875,-3.41796875,36.1328125,0.0
1742783538.744907,-114.2578125,-351.5625,-62.98828125,-76.171875,0.0
1742783538.7488122,-117.1875,-411.1328125,-61.5234375,-74.70703125,0.0
1742783538.7527175,31.73828125,206.54296875,-2.9296875,24.4140625,0.0
1742783538.7566228,70.80078125,341.30859375,3.41796875,49.31640625,0.0
1742783538.760528,-69.82421875,-166.9921875,-47.8515625,-58.10546875,0.0
1742783538.7644434,-123.046875,-351.07421875,-57.12890625,-102.05078125,0.0
1742783538.7683487,9.765625,69.3359375,-10.7421875,5.859375,0.0
1742783538.772254,88.37890625,299.8046875,5.37109375,64.94140625,0.0
1742783538.7761593,-39.0625,-14.16015625,-35.64453125,-28.80859375,0.0
1742783538.7800646,-141.11328125,-336.9140625,-68.359375,-107.421875,0.0
1742783538.7839699,-31.25,-163.57421875,-43.45703125,-46.38671875,0.0
1742783538.7878752,115.234375,167.48046875,-2.9296875,70.3125,0.0
1742783538.7917805,76.171875,-21.484375,-26.3671875,53.7109375,0.0
1742783538.7956858,-100.09765625,-287.109375,-70.3125,-103.02734375,0.0
1742783538.799591,-96.19140625,-154.296875,-63.4765625,-118.65234375,0.0
1742783538.8034964,62.98828125,119.140625,-35.64453125,3.41796875,0.0
1742783538.8074017,58.10546875,204.1015625,-29.296875,29.296875,0.0
1742783538.8113153,-125.48828125,-112.3046875,-68.359375,-83.49609375,0.0
1742783538.8152206,-146.484375,-239.2578125,-85.9375,-108.88671875,0.0
1742783538.819126,27.83203125,62.98828125,-54.6875,11.71875,0.0
1742783538.8230312,75.68359375,282.2265625,-31.73828125,47.8515625,0.0
1742783538.8269365,-84.9609375,-31.73828125,-71.2890625,-65.4296875,0.0
1742783538.8308418,-138.18359375,-350.5859375,-103.515625,-115.72265625,0.0
1742783538.834747,10.25390625,-193.359375,-71.2890625,-9.27734375,0.0
1742783538.8386524,99.12109375,148.92578125,-34.1796875,66.89453125,0.0
1742783538.8425577,-24.90234375,167.96875,-45.41015625,-27.83203125,0.0
1742783538.846463,-132.32421875,-230.46875,-81.54296875,-110.83984375,0.0
1742783538.8503683,-38.57421875,-143.5546875,-65.91796875,-39.0625,0.0
1742783538.8542736,98.14453125,279.78515625,-24.4140625,59.08203125,0.0
1742783538.858188,40.52734375,195.80078125,-34.1796875,18.06640625,0.0
1742783538.8620932,-129.8828125,-250.0,-82.03125,-102.5390625,0.0
1742783538.8659985,-100.5859375,-253.41796875,-77.1484375,-76.66015625,0.0
1742783538.8699038,64.453125,194.3359375,-20.01953125,40.0390625,0.0
1742783538.873809,56.15234375,297.36328125,-11.71875,50.78125,0.0
1742783538.8777144,-122.0703125,-197.75390625,-69.82421875,-62.01171875,0.0
1742783538.8816197,-131.8359375,-486.81640625,-89.84375,-89.84375,0.0
1742783538.885525,22.94921875,8.30078125,-32.2265625,12.6953125,0.0
1742783538.8894303,76.66015625,390.625,-0.9765625,57.6171875,0.0
1742783538.8933356,-58.10546875,-32.2265625,-49.31640625,-42.96875,0.0
1742783538.8972409,-126.953125,-402.34375,-80.078125,-104.00390625,0.0
1742783538.9011462,0.9765625,-69.82421875,-41.015625,-19.53125,0.0
1742783538.9050581,97.65625,344.23828125,3.41796875,58.10546875,0.0
1742783538.9089634,-5.859375,89.35546875,-26.85546875,-0.48828125,0.0
1742783538.9128687,-134.27734375,-361.328125,-78.125,-97.16796875,0.0
1742783538.916774,-52.734375,-187.01171875,-55.17578125,-48.33984375,0.0
1742783538.9206793,86.9140625,274.90234375,-5.859375,67.3828125,0.0
1742783538.9245846,39.55078125,96.19140625,-24.90234375,54.19921875,0.0
1742783538.92849,-107.421875,-352.05078125,-73.2421875,-75.68359375,0.0
1742783538.9323952,-87.890625,-203.61328125,-57.12890625,-84.47265625,0.0
1742783538.9363005,67.3828125,211.9140625,-14.16015625,29.78515625,0.0
1742783538.9402058,81.54296875,210.44921875,-11.71875,66.89453125,0.0
1742783538.944111,-77.1484375,-153.3203125,-49.8046875,-40.0390625,0.0
1742783538.9480164,-110.83984375,-243.1640625,-62.98828125,-90.8203125,0.0
1742783538.9519343,30.76171875,32.2265625,-29.78515625,20.99609375,0.0
1742783538.9558396,90.33203125,271.484375,-0.48828125,85.9375,0.0
1742783538.959745,-43.45703125,23.92578125,-36.62109375,-19.53125,0.0
1742783538.9636502,-134.765625,-284.66796875,-71.77734375,-105.46875,0.0
1742783538.9675555,-17.08984375,-116.2109375,-44.43359375,-29.78515625,0.0
1742783538.9714608,102.5390625,170.8984375,-16.6015625,66.89453125,0.0
1742783538.975366,7.8125,48.33984375,-36.62109375,10.7421875,0.0
1742783538.9792714,-124.0234375,-270.5078125,-71.77734375,-97.16796875,0.0
1742783538.9831767,-57.12890625,-209.47265625,-59.5703125,-65.4296875,0.0
1742783538.987082,78.61328125,93.75,-20.99609375,43.45703125,0.0
1742783538.9909873,55.17578125,189.94140625,-5.37109375,36.62109375,0.0
1742783538.9948926,-110.83984375,-196.2890625,-46.38671875,-79.1015625,0.0
1742783538.9988103,-109.86328125,-325.68359375,-63.4765625,-83.0078125,0.0
1742783539.0027156,62.98828125,110.3515625,-13.18359375,24.90234375,0.0
1742783539.006621,88.8671875,347.16796875,8.7890625,36.1328125,0.0
1742783539.0105262,-75.68359375,-41.9921875,-40.0390625,-71.77734375,0.0
1742783539.0144317,-118.65234375,-364.2578125,-65.91796875,-101.5625,0.0
1742783539.018337,23.4375,-106.4453125,-29.78515625,-1.46484375,0.0
1742783539.0222423,93.75,278.80859375,9.765625,57.6171875,0.0
1742783539.0261476,-43.9453125,96.19140625,-21.484375,-36.62109375,0.0
1742783539.030053,-146.97265625,-452.1484375,-83.49609375,-106.4453125,0.0
1742783539.0339582,-45.8984375,-282.71484375,-60.546875,-41.015625,0.0
1742783539.0378635,68.359375,337.890625,7.32421875,41.015625,0.0
1742783539.0417688,7.32421875,189.94140625,3.90625,10.25390625,0.0
1742783539.045685,-118.65234375,-312.5,-47.36328125,-81.0546875,0.0
1742783539.0495903,-70.3125,-219.7265625,-46.38671875,-66.89453125,0.0
1742783539.0534956,64.453125,236.81640625,-4.8828125,18.5546875,0.0
1742783539.057401,33.203125,241.2109375,-13.671875,10.7421875,0.0
1742783539.0613062,-120.1171875,-194.3359375,-61.03515625,-98.14453125,0.0
1742783539.0652115,-111.81640625,-312.5,-73.2421875,-92.28515625,0.0
1742783539.0691168,27.34375,80.078125,-31.25,15.625,0.0
1742783539.0730221,71.2890625,294.43359375,-7.32421875,54.6875,0.0
1742783539.0769274,-72.75390625,-166.9921875,-55.17578125,-41.015625,0.0
1742783539.0808327,-146.97265625,-333.49609375,-73.2421875,-111.328125,0.0
1742783539.084738,-18.5546875,-2.44140625,-40.0390625,-23.4375,0.0
1742783539.0886433,84.9609375,203.61328125,-13.18359375,70.3125,0.0
1742783539.0925586,-28.80859375,37.109375,-41.50390625,-14.6484375,0.0
1742783539.096464,-141.11328125,-232.91015625,-79.1015625,-115.234375,0.0
1742783539.1003692,-39.55078125,-117.67578125,-54.6875,-41.015625,0.0
1742783539.1042747,96.19140625,234.86328125,-7.8125,74.70703125,0.0
1742783539.10818,46.875,186.5234375,-18.06640625,40.0390625,0.0
1742783539.1120853,-104.4921875,-256.8359375,-71.2890625,-84.9609375,0.0
1742783539.1159906,-85.44921875,-265.13671875,-66.40625,-66.40625,0.0
1742783539.119896,76.66015625,37.59765625,-26.3671875,55.6640625,0.0
1742783539.1238012,74.70703125,127.9296875,-22.4609375,55.17578125,0.0
1742783539.1277065,-107.421875,-41.50390625,-52.24609375,-84.9609375,0.0
1742783539.1316118,-119.62890625,-230.95703125,-70.3125,-113.28125,0.0
1742783539.1355171,41.015625,60.05859375,-36.62109375,3.90625,0.0
1742783539.139432,88.37890625,318.359375,-6.8359375,54.19921875,0.0
1742783539.1433372,-54.19921875,-16.11328125,-43.45703125,-50.29296875,0.0
1742783539.1472425,-125.48828125,-331.0546875,-80.56640625,-112.3046875,0.0
1742783539.1511478,-3.90625,-81.54296875,-43.9453125,-23.4375,0.0
1742783539.1550531,107.91015625,286.62109375,1.46484375,62.5,0.0
1742783539.1589584,3.41796875,84.9609375,-25.390625,5.859375,0.0
1742783539.1628637,-130.859375,-333.49609375,-68.359375,-100.09765625,0.0
1742783539.166769,-45.8984375,-317.87109375,-57.12890625,-54.19921875,0.0
1742783539.1706746,89.84375,201.66015625,-6.34765625,48.828125,0.0
1742783539.1745799,37.59765625,306.15234375,-7.8125,11.23046875,0.0
1742783539.1784852,-117.1875,-264.16015625,-68.84765625,-107.421875,0.0
1742783539.1823905,-89.35546875,-324.21875,-66.89453125,-95.21484375,0.0
1742783539.186304,53.22265625,189.453125,-12.6953125,17.08984375,0.0
1742783539.1902094,57.6171875,333.984375,-5.37109375,37.109375,0.0
1742783539.1941147,-103.02734375,-143.06640625,-55.17578125,-77.63671875,0.0
1742783539.19802,-138.671875,-394.04296875,-72.75390625,-114.74609375,0.0
1742783539.2019253,12.6953125,-24.4140625,-32.71484375,-9.27734375,0.0
1742783539.2058306,78.61328125,267.578125,-6.34765625,56.15234375,0.0
1742783539.2097359,-57.6171875,-146.97265625,-52.24609375,-26.85546875,0.0
1742783539.2136412,-155.2734375,-477.05078125,-84.9609375,-113.28125,0.0
1742783539.2175465,-57.12890625,-18.5546875,-41.50390625,-53.22265625,0.0
1742783539.2214518,74.70703125,344.23828125,-9.27734375,49.8046875,0.0
1742783539.225357,-1.953125,123.53515625,-38.0859375,-3.41796875,0.0
1742783539.2292624,-158.203125,-257.32421875,-70.3125,-117.1875,0.0
1742783539.2331753,-85.44921875,-152.34375,-49.8046875,-74.21875,0.0
1742783539.2370806,68.84765625,217.28515625,-13.18359375,35.64453125,0.0
1742783539.2409859,31.25,202.63671875,-17.578125,19.53125,0.0
1742783539.2448912,-128.90625,-176.7578125,-60.05859375,-99.609375,0.0
1742783539.2487965,-135.7421875,-250.48828125,-60.546875,-111.81640625,0.0
1742783539.2527018,25.390625,66.40625,-15.13671875,8.30078125,0.0
1742783539.256607,72.265625,139.16015625,-2.9296875,54.19921875,0.0
1742783539.2605124,-101.07421875,-147.4609375,-46.875,-76.66015625,0.0
1742783539.264418,-166.50390625,-240.72265625,-62.98828125,-137.6953125,0.0
1742783539.2683232,-20.5078125,-13.18359375,-27.83203125,-32.71484375,0.0
1742783539.2722285,77.63671875,189.94140625,-4.39453125,31.73828125,0.0
1742783539.2761338,-40.0390625,40.52734375,-27.83203125,-57.6171875,0.0
1742783539.2800457,-161.1328125,-230.95703125,-58.59375,-143.5546875,0.0
1742783539.283951,-42.96875,-177.24609375,-43.9453125,-58.59375,0.0
1742783539.2878563,89.84375,157.2265625,-10.25390625,41.9921875,0.0
1742783539.2917616,4.8828125,198.73046875,-10.7421875,-9.27734375,0.0
1742783539.295667,-118.1640625,-207.03125,-53.22265625,-101.07421875,0.0
1742783539.2995722,-50.29296875,-347.65625,-61.5234375,-55.6640625,0.0
1742783539.3034775,86.9140625,67.3828125,-13.18359375,45.8984375,0.0
1742783539.307383,52.24609375,309.08203125,-0.48828125,31.73828125,0.0
1742783539.3112884,-106.93359375,-163.57421875,-53.7109375,-81.54296875,0.0
1742783539.3151937,-97.16796875,-414.55078125,-66.40625,-88.8671875,0.0
1742783539.319099,50.78125,35.15625,-15.625,12.6953125,0.0
1742783539.3230042,94.7265625,368.65234375,10.25390625,42.48046875,0.0
1742783539.3269231,-60.546875,-36.62109375,-36.1328125,-51.7578125,0.0
1742783539.3308284,-147.4609375,-362.79296875,-63.96484375,-102.5390625,0.0
1742783539.334734,-14.6484375,-36.1328125,-22.94921875,-18.06640625,0.0
1742783539.3386393,81.0546875,320.80078125,19.04296875,68.84765625,0.0
1742783539.3425446,-39.0625,54.6875,-10.7421875,0.0,0.0
1742783539.3464499,-158.69140625,-423.33984375,-59.5703125,-104.00390625,0.0
1742783539.3503551,-63.4765625,-222.16796875,-40.0390625,-54.19921875,0.0
1742783539.3542604,65.4296875,301.7578125,8.30078125,49.31640625,0.0
1742783539.3581657,13.18359375,184.08203125,-5.37109375,28.3203125,0.0
1742783539.362071,-130.37109375,-346.6796875,-59.5703125,-90.33203125,0.0
1742783539.3659763,-100.5859375,-279.78515625,-48.33984375,-87.40234375,0.0
1742783539.3698816,53.22265625,156.25,0.0,37.109375,0.0
1742783539.3737988,56.15234375,220.21484375,0.0,59.08203125,0.0
1742783539.3777041,-110.3515625,-136.23046875,-47.36328125,-62.5,0.0
1742783539.3816097,-131.34765625,-244.140625,-60.546875,-97.16796875,0.0
1742783539.385515,27.34375,101.07421875,-19.53125,13.18359375,0.0
1742783539.3894203,95.703125,268.06640625,-3.90625,70.80078125,0.0
1742783539.3933256,-46.875,-103.02734375,-44.43359375,-35.64453125,0.0
1742783539.3972309,-138.671875,-331.0546875,-67.3828125,-115.72265625,0.0
1742783539.4011362,-21.484375,9.27734375,-39.55078125,-35.15625,0.0
1742783539.4050415,98.14453125,166.9921875,-17.08984375,56.15234375,0.0
1742783539.4089468,4.39453125,-31.25,-39.0625,-11.23046875,0.0
1742783539.412852,-139.6484375,-192.3828125,-68.359375,-117.1875,0.0
1742783539.4167573,-67.87109375,-173.828125,-53.22265625,-69.82421875,0.0
1742783539.4206734,72.75390625,216.796875,-4.8828125,33.69140625,0.0
1742783539.4245787,32.71484375,254.8828125,-6.8359375,13.671875,0.0
1742783539.428484,-124.0234375,-194.3359375,-54.19921875,-108.3984375,0.0
1742783539.4323895,-112.3046875,-252.9296875,-55.6640625,-115.234375,0.0
1742783539.4362948,52.24609375,100.09765625,-12.20703125,3.41796875,0.0
1742783539.4402,80.078125,224.12109375,-3.41796875,37.59765625,0.0
1742783539.4441054,-83.49609375,-120.1171875,-49.31640625,-73.73046875,0.0
1742783539.4480107,-127.9296875,-316.40625,-68.359375,-107.421875,0.0
1742783539.451916,20.01953125,-108.3984375,-35.15625,8.30078125,0.0
1742783539.4558213,83.984375,285.15625,4.39453125,62.5,0.0
1742783539.4597266,-54.19921875,57.12890625,-32.2265625,-32.71484375,0.0
1742783539.4636319,-143.5546875,-379.8828125,-74.21875,-94.23828125,0.0
1742783539.4675474,-34.66796875,-102.5390625,-39.55078125,-27.34375,0.0
1742783539.4714527,75.68359375,341.796875,1.46484375,39.0625,0.0
1742783539.475358,-4.39453125,203.125,-13.18359375,1.953125,0.0
1742783539.4792633,-127.44140625,-296.38671875,-55.6640625,-96.19140625,0.0
1742783539.4831686,-57.6171875,-278.80859375,-53.22265625,-61.5234375,0.0
1742783539.487074,92.28515625,149.4140625,-10.25390625,46.38671875,0.0
1742783539.4909792,69.82421875,212.40234375,-5.37109375,38.57421875,0.0
1742783539.4948845,-85.9375,-332.51953125,-62.98828125,-68.84765625,0.0
1742783539.4987898,-71.2890625,-435.546875,-69.82421875,-79.58984375,0.0
1742783539.502695,71.2890625,188.96484375,-3.90625,21.484375,0.0
1742783539.5066004,75.1953125,350.09765625,12.20703125,64.453125,0.0
1742783539.510506,-98.6328125,-94.23828125,-46.875,-43.9453125,0.0
1742783539.5144205,-157.71484375,-311.5234375,-73.2421875,-104.98046875,0.0
1742783539.5183258,-13.18359375,33.203125,-30.76171875,-7.32421875,0.0
1742783539.522231,76.66015625,299.31640625,-0.48828125,61.5234375,0.0
1742783539.5261364,-42.48046875,22.94921875,-31.73828125,-19.04296875,0.0
1742783539.5300417,-152.34375,-311.5234375,-67.87109375,-110.3515625,0.0
1742783539.533947,-51.7578125,-179.6875,-43.9453125,-50.78125,0.0
1742783539.5378523,76.66015625,187.01171875,-5.37109375,52.24609375,0.0
1742783539.5417576,19.53125,30.2734375,-27.34375,17.08984375,0.0
1742783539.5456629,-133.7890625,-278.3203125,-57.6171875,-108.3984375,0.0
1742783539.5495682,-98.6328125,-118.1640625,-38.57421875,-84.9609375,0.0
1742783539.5534735,56.640625,156.25,-3.41796875,42.48046875,0.0
1742783539.5573788,43.9453125,208.0078125,4.8828125,43.9453125,0.0
1742783539.5612926,-113.28125,-108.3984375,-36.1328125,-85.44921875,0.0
1742783539.565198,-129.8828125,-256.8359375,-50.78125,-107.91015625,0.0
1742783539.5691032,29.296875,35.64453125,-14.6484375,8.7890625,0.0
1742783539.5730085,99.609375,264.16015625,8.7890625,56.640625,0.0
1742783539.576914,-40.52734375,-29.296875,-25.87890625,-48.828125,0.0
1742783539.5808194,-121.58203125,-361.328125,-57.6171875,-108.88671875,0.0
1742783539.5847247,-3.41796875,-209.47265625,-28.3203125,-7.8125,0.0
1742783539.58863,83.0078125,129.8828125,4.39453125,69.3359375,0.0
1742783539.5925353,-49.31640625,156.25,-5.859375,-20.5078125,0.0
1742783539.5964406,-168.45703125,-269.04296875,-50.78125,-110.3515625,0.0
1742783539.6003458,-72.75390625,-204.58984375,-46.38671875,-56.15234375,0.0
1742783539.6042511,62.98828125,278.3203125,2.44140625,43.9453125,0.0
1742783539.6081648,20.01953125,270.5078125,-0.48828125,18.5546875,0.0
1742783539.61207,-124.0234375,-228.515625,-54.6875,-80.078125,0.0
1742783539.6159754,-74.21875,-309.08203125,-65.4296875,-39.0625,0.0
1742783539.6198807,77.63671875,172.36328125,-21.484375,53.7109375,0.0
1742783539.623786,55.17578125,321.2890625,-11.23046875,31.25,0.0
1742783539.6276913,-105.46875,-165.0390625,-60.546875,-88.8671875,0.0
1742783539.6315966,-121.58203125,-485.83984375,-84.47265625,-107.91015625,0.0
1742783539.6355019,12.20703125,-7.8125,-40.52734375,-13.671875,0.0
1742783539.6394072,54.6875,418.9453125,-9.27734375,14.6484375,0.0
1742783539.6433125,-78.125,4.8828125,-49.8046875,-88.8671875,0.0
1742783539.6472178,-161.1328125,-407.2265625,-77.63671875,-145.01953125,0.0
1742783539.651123,-52.24609375,-73.73046875,-32.71484375,-59.5703125,0.0
1742783539.6550348,57.6171875,299.31640625,3.90625,28.3203125,0.0
1742783539.65894,-29.78515625,64.453125,-20.99609375,-30.76171875,0.0
1742783539.6628454,-161.1328125,-284.66796875,-60.05859375,-129.39453125,0.0
1742783539.6667507,-88.8671875,-125.48828125,-46.38671875,-68.84765625,0.0
1742783539.670656,76.66015625,277.83203125,-0.9765625,41.50390625,0.0
1742783539.6745615,55.6640625,118.65234375,-10.7421875,29.296875,0.0
1742783539.6784668,-115.72265625,-321.77734375,-59.08203125,-89.84375,0.0
1742783539.682372,-105.46875,-189.453125,-49.31640625,-97.65625,0.0
1742783539.6862774,47.36328125,209.47265625,-3.41796875,32.2265625,0.0
1742783539.6901827,63.96484375,225.09765625,-0.48828125,74.21875,0.0
1742783539.694088,-95.21484375,-134.765625,-45.8984375,-53.22265625,0.0
1742783539.6979933,-133.30078125,-234.86328125,-59.08203125,-97.16796875,0.0
1742783539.7019117,23.4375,46.38671875,-25.390625,20.01953125,0.0
1742783539.705817,100.09765625,302.24609375,-2.9296875,74.21875,0.0
1742783539.7097223,-24.90234375,11.23046875,-39.55078125,-23.4375,0.0
1742783539.7136276,-118.65234375,-311.5234375,-74.21875,-109.375,0.0
1742783539.7175329,-19.04296875,-82.51953125,-46.38671875,-44.43359375,0.0
1742783539.7214382,89.84375,198.2421875,-10.25390625,49.31640625,0.0
1742783539.7253435,6.34765625,116.2109375,-20.99609375,-9.765625,0.0
1742783539.7292488,-132.8125,-194.82421875,-58.10546875,-129.8828125,0.0
1742783539.733154,-65.91796875,-212.40234375,-55.17578125,-84.9609375,0.0
1742783539.7370594,88.37890625,93.26171875,-22.4609375,31.73828125,0.0
1742783539.7409647,55.6640625,196.77734375,-17.578125,9.27734375,0.0
1742783539.74487,-119.140625,-162.59765625,-58.10546875,-117.67578125,0.0
1742783539.7487876,-119.62890625,-294.921875,-62.98828125,-117.1875,0.0
1742783539.752693,34.1796875,84.9609375,-13.18359375,10.7421875,0.0
1742783539.7565982,59.08203125,347.16796875,6.34765625,40.0390625,0.0
1742783539.7605035,-96.6796875,-37.109375,-36.1328125,-76.66015625,0.0
1742783539.7644088,-146.484375,-352.05078125,-62.5,-118.1640625,0.0
1742783539.7683141,-4.8828125,-75.68359375,-32.71484375,-11.71875,0.0
1742783539.7722197,79.58984375,240.234375,2.9296875,45.41015625,0.0
1742783539.776125,-35.15625,45.8984375,-25.390625,-38.57421875,0.0
1742783539.7800303,-145.01953125,-445.80078125,-74.21875,-108.88671875,0.0
1742783539.7839355,-53.7109375,-287.109375,-46.875,-35.64453125,0.0
1742783539.7878408,54.19921875,337.890625,13.18359375,58.10546875,0.0
1742783539.7917461,-12.6953125,227.05078125,-3.41796875,20.01953125,0.0
1742783539.7956624,-157.71484375,-273.92578125,-55.17578125,-95.703125,0.0
1742783539.7995677,-107.91015625,-229.00390625,-43.9453125,-77.63671875,0.0
1742783539.803473,59.5703125,217.28515625,6.8359375,48.33984375,0.0
1742783539.8073783,57.12890625,268.06640625,8.30078125,58.59375,0.0
1742783539.8112836,-102.5390625,-203.61328125,-41.50390625,-69.3359375,0.0
1742783539.815189,-120.1171875,-381.8359375,-54.6875,-92.28515625,0.0
1742783539.8190942,28.80859375,33.203125,-9.27734375,6.8359375,0.0
1742783539.8229995,88.37890625,286.62109375,16.11328125,51.26953125,0.0
1742783539.8269048,-53.7109375,-189.453125,-29.78515625,-39.55078125,0.0
1742783539.83081,-133.7890625,-369.140625,-51.7578125,-111.81640625,0.0
1742783539.8347154,2.9296875,-21.97265625,-15.13671875,-17.08984375,0.0
1742783539.8386207,107.91015625,219.7265625,10.7421875,67.87109375,0.0
1742783539.842536,6.34765625,73.2421875,-14.16015625,-11.23046875,0.0
1742783539.8464413,-115.72265625,-238.28125,-52.24609375,-117.67578125,0.0
1742783539.8503466,-33.69140625,-119.140625,-34.1796875,-57.6171875,0.0
1742783539.8542519,107.91015625,212.40234375,9.765625,64.453125,0.0
1742783539.8581572,39.0625,157.71484375,-4.39453125,33.203125,0.0
1742783539.8620625,-130.859375,-274.4140625,-53.7109375,-83.49609375,0.0
1742783539.8659678,-105.46875,-300.29296875,-46.38671875,-72.265625,0.0
1742783539.869873,45.8984375,20.99609375,-9.27734375,47.36328125,0.0
1742783539.8737783,53.7109375,137.6953125,0.9765625,58.10546875,0.0
1742783539.8776836,-114.74609375,-51.26953125,-31.73828125,-81.54296875,0.0
1742783539.881589,-150.87890625,-290.52734375,-58.10546875,-126.953125,0.0
1742783539.8854942,-6.34765625,8.30078125,-22.4609375,-19.04296875,0.0
1742783539.889409,57.6171875,342.7734375,6.34765625,36.62109375,0.0
1742783539.8933144,-71.77734375,59.5703125,-29.296875,-70.3125,0.0
1742783539.8972197,-163.57421875,-321.77734375,-66.40625,-134.765625,0.0
1742783539.901125,-60.546875,-113.28125,-33.69140625,-48.828125,0.0
1742783539.9050303,47.8515625,264.6484375,3.90625,31.25,0.0
1742783539.9089355,-41.50390625,58.59375,-25.390625,-36.62109375,0.0
1742783539.9128408,-156.25,-352.05078125,-67.87109375,-132.32421875,0.0
1742783539.9167461,-67.3828125,-345.21484375,-54.19921875,-75.68359375,0.0
1742783539.9206514,68.84765625,191.40625,-1.953125,35.15625,0.0
1742783539.9245567,26.3671875,346.19140625,9.27734375,22.4609375,0.0
1742783539.928462,-107.91015625,-236.81640625,-41.9921875,-81.54296875,0.0
1742783539.9323676,-97.16796875,-335.9375,-46.38671875,-77.1484375,0.0
1742783539.936281,69.3359375,148.4375,13.18359375,63.96484375,0.0
1742783539.9401863,112.3046875,257.32421875,14.16015625,108.88671875,0.0
1742783539.9440916,-80.078125,-169.43359375,-47.36328125,-53.22265625,0.0
1742783539.9479969,-156.73828125,-333.984375,-61.03515625,-128.90625,0.0
1742783539.9519022,-12.20703125,52.24609375,-22.94921875,-14.16015625,0.0
1742783539.9558077,71.2890625,289.0625,-4.8828125,61.03515625,0.0
1742783539.959713,-49.8046875,-114.2578125,-52.734375,-28.80859375,0.0
1742783539.9636183,-151.3671875,-416.9921875,-90.33203125,-129.8828125,0.0
1742783539.9675236,-57.6171875,-31.25,-59.5703125,-85.44921875,0.0
1742783539.9714289,77.1484375,337.40234375,-25.390625,19.53125,0.0
1742783539.9753342,9.27734375,91.30859375,-48.828125,-12.6953125,0.0
1742783539.9792395,-140.625,-302.734375,-90.8203125,-137.6953125,0.0
1742783539.9831524,-89.84375,-133.7890625,-63.96484375,-110.83984375,0.0
1742783539.9870577,61.5234375,229.00390625,-19.53125,18.06640625,0.0
1742783539.990963,42.96875,236.328125,-25.87890625,17.08984375,0.0
1742783539.9948683,-113.28125,-195.80078125,-73.2421875,-102.05078125,0.0
1742783539.9987736,-109.375,-308.10546875,-80.56640625,-121.09375,0.0
1742783540.0026789,44.921875,75.1953125,-37.109375,1.953125,0.0
1742783540.0065842,81.54296875,141.6015625,-26.3671875,66.40625,0.0
1742783540.0104895,-74.21875,-111.81640625,-57.6171875,-45.8984375,0.0
1742783540.0143948,-146.484375,-219.23828125,-67.3828125,-113.28125,0.0
1742783540.0183,-11.23046875,-11.71875,-31.25,-5.37109375,0.0
1742783540.0222054,76.171875,220.703125,-6.8359375,74.70703125,0.0
1742783540.0261106,-32.71484375,63.96484375,-32.2265625,-14.6484375,0.0
1742783540.0300224,-140.13671875,-243.1640625,-65.4296875,-125.9765625,0.0
1742783540.0339277,-36.62109375,-175.29296875,-49.8046875,-60.546875,0.0
1742783540.037833,83.49609375,190.91796875,-15.13671875,46.875,0.0
1742783540.0417383,2.9296875,209.9609375,-27.34375,7.32421875,0.0
1742783540.0456436,-136.23046875,-213.37890625,-70.80078125,-102.5390625,0.0
1742783540.0495489,-101.5625,-388.18359375,-79.58984375,-79.58984375,0.0
1742783540.0534542,45.41015625,-17.578125,-34.1796875,29.296875,0.0
1742783540.0573595,35.15625,268.5546875,-3.90625,26.3671875,0.0
1742783540.061265,-126.46484375,-95.21484375,-49.8046875,-93.26171875,0.0
1742783540.0651703,-136.23046875,-316.40625,-70.3125,-111.328125,0.0
1742783540.0690756,26.3671875,72.75390625,-28.80859375,2.9296875,0.0
1742783540.0729809,78.61328125,380.37109375,-3.90625,60.05859375,0.0
1742783540.0768993,-87.890625,-3.90625,-41.9921875,-40.0390625,0.0
1742783540.0808046,-171.875,-353.515625,-73.2421875,-115.234375,0.0
1742783540.08471,-48.33984375,-42.96875,-29.78515625,-26.3671875,0.0
1742783540.0886152,55.17578125,332.51953125,9.27734375,59.5703125,0.0
1742783540.0925205,-48.33984375,90.8203125,-33.203125,-13.671875,0.0
1742783540.0964258,-159.66796875,-402.34375,-80.56640625,-103.515625,0.0
1742783540.1003313,-75.68359375,-211.9140625,-52.24609375,-50.78125,0.0
1742783540.1042366,57.6171875,314.94140625,-5.37109375,60.05859375,0.0
1742783540.108142,24.4140625,199.21875,-18.5546875,42.48046875,0.0
1742783540.1120472,-114.2578125,-339.84375,-72.265625,-78.61328125,0.0
1742783540.1159525,-85.44921875,-300.29296875,-59.5703125,-79.1015625,0.0
1742783540.1198578,71.2890625,195.80078125,-10.25390625,27.83203125,0.0
1742783540.123775,92.28515625,293.45703125,-12.20703125,40.52734375,0.0
1742783540.1276803,-69.3359375,-141.11328125,-59.5703125,-69.3359375,0.0
1742783540.1315856,-117.1875,-266.11328125,-68.84765625,-104.98046875,0.0
1742783540.135491,17.08984375,82.03125,-28.80859375,-5.37109375,0.0
1742783540.1393962,79.1015625,263.18359375,-2.44140625,60.546875,0.0
1742783540.1433015,-47.8515625,-102.5390625,-41.015625,-32.2265625,0.0
1742783540.147207,-141.6015625,-377.9296875,-76.171875,-105.46875,0.0
1742783540.1511123,-29.296875,-33.69140625,-34.66796875,-25.390625,0.0
1742783540.1550176,83.49609375,175.29296875,-5.859375,61.5234375,0.0
1742783540.158923,-17.08984375,-27.83203125,-36.1328125,-0.48828125,0.0
1742783540.1628282,-151.3671875,-200.68359375,-63.96484375,-114.74609375,0.0
1742783540.1667335,-78.61328125,-192.3828125,-50.29296875,-64.94140625,0.0
1742783540.1706498,62.5,184.08203125,-11.23046875,53.22265625,0.0
1742783540.174555,32.2265625,273.92578125,-17.08984375,28.3203125,0.0
1742783540.1784604,-114.2578125,-147.4609375,-62.01171875,-100.09765625,0.0
1742783540.1823657,-106.4453125,-271.97265625,-59.5703125,-98.6328125,0.0
1742783540.186271,43.45703125,98.6328125,-12.20703125,25.390625,0.0
1742783540.1901765,76.66015625,252.44140625,-9.27734375,58.59375,0.0
1742783540.1940818,-83.0078125,-104.00390625,-59.08203125,-64.453125,0.0
1742783540.197987,-135.7421875,-314.94140625,-75.1953125,-120.1171875,0.0
1742783540.2018924,9.765625,-128.41796875,-41.015625,-12.20703125,0.0
1742783540.2057977,82.51953125,273.92578125,3.90625,58.10546875,0.0
1742783540.209703,-35.15625,80.078125,-23.4375,-31.73828125,0.0
1742783540.2136083,-134.765625,-384.765625,-71.77734375,-114.74609375,0.0
1742783540.2175236,-40.0390625,-120.1171875,-33.69140625,-31.73828125,0.0
1742783540.2214289,74.21875,313.4765625,15.625,70.80078125,0.0
1742783540.2253342,-3.41796875,172.36328125,-6.8359375,10.25390625,0.0
1742783540.2292397,-134.765625,-269.04296875,-58.10546875,-103.02734375,0.0
1742783540.233145,-72.265625,-233.3984375,-49.31640625,-66.89453125,0.0
1742783540.2370503,84.47265625,166.9921875,1.46484375,53.22265625,0.0
1742783540.2409556,69.82421875,217.7734375,3.41796875,72.265625,0.0
1742783540.244861,-96.6796875,-294.43359375,-58.10546875,-59.5703125,0.0
1742783540.2487662,-123.53515625,-414.55078125,-64.94140625,-115.234375,0.0
1742783540.2526715,18.5546875,185.546875,-5.37109375,-9.765625,0.0
1742783540.2565768,85.44921875,371.58203125,-0.48828125,60.546875,0.0
1742783540.260482,-47.8515625,-136.23046875,-55.6640625,-35.15625,0.0
1742783540.264397,-123.046875,-350.09765625,-63.96484375,-107.91015625,0.0
1742783540.2683022,-4.39453125,67.87109375,-20.99609375,-23.4375,0.0
1742783540.2722075,79.1015625,323.73046875,0.9765625,57.12890625,0.0
1742783540.2761128,-25.390625,52.24609375,-25.390625,-18.5546875,0.0
1742783540.280018,-133.7890625,-328.125,-63.4765625,-112.79296875,0.0
1742783540.2839234,-46.38671875,-182.6171875,-34.1796875,-41.9921875,0.0
1742783540.2878287,83.984375,234.375,13.18359375,60.05859375,0.0
1742783540.291734,33.69140625,65.91796875,-15.625,29.296875,0.0
1742783540.2956393,-124.51171875,-263.671875,-58.10546875,-97.65625,0.0
1742783540.2995448,-99.12109375,-122.55859375,-43.9453125,-94.23828125,0.0
1742783540.30345,64.94140625,157.2265625,-6.8359375,38.57421875,0.0
1742783540.3073554,61.03515625,238.76953125,-2.44140625,59.08203125,0.0
1742783540.3112688,-110.3515625,-94.23828125,-40.52734375,-77.63671875,0.0
1742783540.315174,-125.0,-266.11328125,-54.19921875,-115.234375,0.0
1742783540.3190794,34.1796875,33.69140625,-25.87890625,2.44140625,0.0
1742783540.3229847,80.078125,269.53125,-3.41796875,52.734375,0.0
1742783540.32689,-61.5234375,-4.39453125,-39.0625,-54.19921875,0.0
1742783540.3307955,-128.90625,-337.40234375,-72.265625,-111.328125,0.0
1742783540.3347008,-0.9765625,-214.84375,-47.36328125,-6.34765625,0.0
1742783540.338606,99.609375,125.0,-13.671875,76.171875,0.0
1742783540.3425114,-13.671875,176.7578125,-23.92578125,-17.08984375,0.0
1742783540.3464167,-139.6484375,-219.7265625,-68.84765625,-122.0703125,0.0
1742783540.350322,-54.6875,-179.19921875,-52.734375,-57.6171875,0.0
1742783540.3542273,89.84375,263.671875,4.39453125,64.453125,0.0
1742783540.3581405,38.0859375,284.66796875,2.9296875,39.55078125,0.0
1742783540.3620458,-122.0703125,-200.1953125,-56.640625,-83.0078125,0.0
1742783540.365951,-86.9140625,-294.43359375,-60.05859375,-63.4765625,0.0
1742783540.3698564,69.82421875,166.50390625,-8.30078125,52.24609375,0.0
1742783540.3737617,62.01171875,306.640625,-1.953125,64.453125,0.0
1742783540.3776672,-99.12109375,-176.26953125,-56.640625,-58.10546875,0.0
1742783540.3815725,-122.0703125,-500.9765625,-81.54296875,-95.703125,0.0
1742783540.3854778,15.625,-30.2734375,-27.34375,7.32421875,0.0
1742783540.389383,75.68359375,409.66796875,7.32421875,46.875,0.0
1742783540.3932884,-49.8046875,9.765625,-41.9921875,-45.8984375,0.0
1742783540.3971937,-133.7890625,-413.0859375,-79.1015625,-110.83984375,0.0
1742783540.401099,-32.2265625,-110.3515625,-41.50390625,-37.109375,0.0
1742783540.4050107,71.77734375,346.6796875,5.859375,55.17578125,0.0
1742783540.408916,-16.6015625,109.375,-19.53125,0.0,0.0
1742783540.4128213,-140.625,-334.47265625,-66.89453125,-108.88671875,0.0
1742783540.4167266,-68.84765625,-168.45703125,-46.38671875,-70.80078125,0.0
1742783540.420632,70.80078125,261.71875,-8.7890625,39.0625,0.0
1742783540.4245372,73.2421875,100.09765625,-46.38671875,57.6171875,0.0
1742783540.4284425,-52.24609375,-379.39453125,-91.796875,-30.76171875,0.0
1742783540.4323478,-91.30859375,-234.375,-42.48046875,-77.63671875,0.0
1742783540.436253,9.765625,179.6875,19.53125,-1.46484375,0.0
1742783540.4401584,22.94921875,243.1640625,32.71484375,17.08984375,0.0
1742783540.4440637,-138.18359375,-121.09375,-9.765625,-111.328125,0.0
1742783540.447969,-185.546875,-304.6875,-31.73828125,-163.57421875,0.0
1742783540.451887,-53.7109375,-53.22265625,6.8359375,-72.75390625,0.0
1742783540.4557922,-0.48828125,255.859375,39.55078125,-18.06640625,0.0
1742783540.4596977,-145.01953125,58.59375,17.578125,-117.1875,0.0
1742783540.463603,-228.02734375,-283.203125,-12.20703125,-191.40625,0.0
1742783540.4675083,-122.55859375,-124.51171875,21.97265625,-104.4921875,0.0
1742783540.4714136,-17.08984375,174.8046875,59.08203125,-16.6015625,0.0
1742783540.475319,-80.56640625,87.890625,40.52734375,-66.40625,0.0
1742783540.4792242,-214.84375,-239.2578125,7.32421875,-166.015625,0.0
1742783540.4831295,-147.94921875,-246.09375,4.8828125,-119.140625,0.0
1742783540.4870348,8.30078125,111.328125,33.203125,3.41796875,0.0
1742783540.49094,-17.08984375,202.63671875,29.296875,-7.32421875,0.0
1742783540.4948454,-173.828125,-182.12890625,-17.578125,-133.7890625,0.0
1742783540.4987626,-165.0390625,-342.28515625,-30.76171875,-132.8125,0.0
1742783540.502668,0.9765625,-24.4140625,3.41796875,-6.8359375,0.0
1742783540.5065732,41.015625,297.8515625,29.296875,29.296875,0.0
1742783540.5104785,-105.95703125,-40.52734375,-9.27734375,-77.1484375,0.0
1742783540.514384,-174.31640625,-371.58203125,-41.9921875,-138.18359375,0.0
1742783540.5182893,-49.8046875,-127.44140625,-18.06640625,-42.96875,0.0
1742783540.5221946,37.109375,257.32421875,17.578125,43.45703125,0.0
1742783540.5261,-72.75390625,136.71875,1.953125,-41.9921875,0.0
1742783540.5300052,-172.36328125,-403.80859375,-46.875,-134.765625,0.0
1742783540.5339105,-76.66015625,-304.6875,-31.73828125,-68.359375,0.0
1742783540.5378158,40.52734375,339.35546875,26.3671875,31.73828125,0.0
1742783540.541721,-13.18359375,247.55859375,12.6953125,4.8828125,0.0
1742783540.5456374,-143.06640625,-258.30078125,-38.57421875,-106.93359375,0.0
1742783540.5495427,-102.5390625,-222.16796875,-37.109375,-89.35546875,0.0
1742783540.553448,47.8515625,240.72265625,10.25390625,34.1796875,0.0
1742783540.5573533,53.7109375,295.8984375,16.6015625,42.48046875,0.0
1742783540.5612586,-98.6328125,-202.63671875,-41.015625,-81.54296875,0.0
1742783540.5651639,-119.62890625,-367.1875,-60.05859375,-102.05078125,0.0
1742783540.5690691,20.99609375,28.3203125,-14.16015625,16.6015625,0.0
1742783540.5729744,69.82421875,259.765625,9.27734375,70.3125,0.0
1742783540.5768797,-62.98828125,-91.30859375,-29.296875,-36.1328125,0.0
1742783540.5807853,-141.11328125,-312.5,-60.546875,-112.3046875,0.0
1742783540.5846906,-24.90234375,-44.921875,-32.2265625,-26.3671875,0.0
1742783540.5885959,79.58984375,214.35546875,0.9765625,63.96484375,0.0
1742783540.5925112,-11.23046875,37.109375,-27.34375,-0.9765625,0.0
1742783540.5964165,-134.27734375,-243.1640625,-62.01171875,-104.00390625,0.0
1742783540.6003218,-48.828125,-101.5625,-54.19921875,-47.36328125,0.0
1742783540.604227,117.67578125,229.4921875,-34.1796875,91.796875,0.0
1742783540.6081324,73.73046875,185.05859375,-29.78515625,66.89453125,0.0
1742783540.6120377,-113.76953125,-260.25390625,-53.7109375,-98.14453125,0.0
1742783540.615943,-110.3515625,-305.6640625,-44.921875,-104.4921875,0.0
1742783540.6198483,54.19921875,-2.44140625,-5.37109375,37.59765625,0.0
1742783540.6237535,62.01171875,104.98046875,12.20703125,59.5703125,0.0
1742783540.6276588,-115.234375,-69.82421875,-2.44140625,-86.9140625,0.0
1742783540.6315644,-157.2265625,-287.109375,-17.08984375,-132.8125,0.0
1742783540.6354697,-18.06640625,-18.5546875,12.6953125,-21.484375,0.0
1742783540.639384,45.41015625,297.8515625,48.828125,39.0625,0.0
1742783540.6432893,-88.8671875,31.73828125,22.94921875,-57.6171875,0.0
1742783540.6471946,-161.1328125,-354.00390625,-22.4609375,-120.1171875,0.0
1742783540.6511,-42.96875,-151.3671875,0.0,-33.203125,0.0
1742783540.6550052,62.5,252.9296875,38.57421875,52.734375,0.0
1742783540.6589105,-20.01953125,87.890625,13.671875,-4.39453125,0.0
1742783540.6628158,-145.01953125,-354.00390625,-30.2734375,-102.5390625,0.0
1742783540.666721,-73.2421875,-368.65234375,-27.83203125,-55.17578125,0.0
1742783540.6706266,61.03515625,156.25,19.53125,49.8046875,0.0
1742783540.674532,31.25,319.3359375,23.92578125,32.71484375,0.0
1742783540.6784372,-118.65234375,-229.98046875,-34.1796875,-84.47265625,0.0
1742783540.6823425,-108.3984375,-383.30078125,-42.48046875,-83.0078125,0.0
1742783540.6862562,46.875,100.5859375,9.765625,32.71484375,0.0
1742783540.6901615,70.3125,354.00390625,26.85546875,51.7578125,0.0
1742783540.6940668,-79.58984375,-113.28125,-26.85546875,-57.12890625,0.0
1742783540.697972,-121.09375,-373.046875,-54.6875,-104.00390625,0.0
1742783540.7018774,13.671875,22.4609375,-16.6015625,-8.30078125,0.0
1742783540.7057827,87.890625,291.9921875,7.32421875,67.87109375,0.0
1742783540.709688,-27.83203125,-119.140625,-31.25,-17.578125,0.0
1742783540.7135932,-128.41796875,-486.328125,-74.21875,-104.98046875,0.0
1742783540.7174985,-37.59765625,-50.29296875,-33.69140625,-38.57421875,0.0
1742783540.7214038,78.61328125,351.5625,13.671875,62.5,0.0
1742783540.7253091,-1.46484375,140.13671875,-13.18359375,12.20703125,0.0
1742783540.7292144,-123.53515625,-245.1171875,-59.08203125,-91.796875,0.0
1742783540.7331274,-63.96484375,-190.91796875,-45.41015625,-51.7578125,0.0
1742783540.7370327,59.5703125,131.8359375,-8.30078125,59.5703125,0.0
1742783540.740938,46.875,209.9609375,-0.48828125,62.5,0.0
1742783540.7448435,-106.93359375,-151.3671875,-39.55078125,-71.2890625,0.0
1742783540.7487488,-97.65625,-260.25390625,-50.78125,-81.54296875,0.0
1742783540.752654,56.640625,59.5703125,-12.20703125,44.43359375,0.0
1742783540.7565594,83.0078125,142.08984375,-6.34765625,79.1015625,0.0
1742783540.7604647,-58.10546875,-103.515625,-41.50390625,-42.48046875,0.0
1742783540.76437,-122.55859375,-229.4921875,-56.15234375,-113.28125,0.0
1742783540.7682753,9.765625,-26.85546875,-23.92578125,-9.765625,0.0
1742783540.7721806,102.05078125,228.515625,6.34765625,77.1484375,0.0
1742783540.7760859,-23.92578125,72.265625,-20.5078125,-5.37109375,0.0
1742783540.7799976,-143.06640625,-244.62890625,-59.5703125,-106.93359375,0.0
1742783540.783903,-55.6640625,-174.8046875,-49.31640625,-46.875,0.0
1742783540.7878082,67.3828125,215.8203125,-5.37109375,63.96484375,0.0
1742783540.7917135,10.25390625,183.59375,-10.25390625,33.69140625,0.0
1742783540.7956188,-126.46484375,-260.25390625,-63.4765625,-92.28515625,0.0
1742783540.799524,-83.984375,-371.58203125,-69.82421875,-77.63671875,0.0
1742783540.8034294,56.15234375,25.390625,-20.01953125,35.64453125,0.0
1742783540.8073347,52.734375,346.6796875,4.39453125,43.45703125,0.0
1742783540.81124,-101.07421875,-83.984375,-44.43359375,-76.66015625,0.0
1742783540.8151453,-114.74609375,-363.28125,-62.01171875,-109.375,0.0
1742783540.8190508,31.73828125,41.50390625,-12.6953125,5.37109375,0.0
1742783540.822956,76.171875,366.2109375,6.8359375,57.6171875,0.0
1742783540.8268743,-58.59375,-13.18359375,-42.48046875,-47.36328125,0.0
1742783540.8307796,-129.39453125,-374.51171875,-78.61328125,-122.0703125,0.0
1742783540.8346848,-5.859375,-70.80078125,-46.38671875,-28.3203125,0.0
1742783540.8385904,93.26171875,332.51953125,1.953125,56.15234375,0.0
1742783540.8424957,-3.41796875,100.09765625,-18.5546875,-7.32421875,0.0
1742783540.846401,-118.1640625,-407.2265625,-77.1484375,-107.91015625,0.0
1742783540.8503063,-45.8984375,-271.97265625,-62.01171875,-57.12890625,0.0
1742783540.8542116,76.66015625,240.72265625,-9.27734375,45.8984375,0.0
1742783540.8581169,33.203125,227.5390625,-15.13671875,13.18359375,0.0
1742783540.8620222,-112.79296875,-321.77734375,-68.84765625,-92.7734375,0.0
1742783540.8659275,-87.890625,-329.1015625,-62.5,-78.61328125,0.0
1742783540.8698328,60.05859375,186.5234375,-5.859375,35.15625,0.0
1742783540.8737502,67.3828125,292.96875,1.46484375,53.22265625,0.0
1742783540.8776555,-93.75,-141.6015625,-52.734375,-71.2890625,0.0
1742783540.8815608,-130.37109375,-287.109375,-66.89453125,-118.1640625,0.0
1742783540.885466,19.04296875,69.3359375,-18.06640625,0.9765625,0.0
1742783540.8893714,90.33203125,274.90234375,6.8359375,69.3359375,0.0
1742783540.8932767,-41.015625,-92.7734375,-40.0390625,-31.73828125,0.0
1742783540.8971822,-128.90625,-400.390625,-73.2421875,-109.375,0.0
1742783540.9010875,-20.5078125,-62.01171875,-32.71484375,-24.90234375,0.0
1742783540.9049928,99.12109375,179.6875,-4.39453125,88.8671875,0.0
1742783540.908898,17.578125,-23.92578125,-33.203125,24.4140625,0.0
1742783540.9128034,-140.13671875,-195.80078125,-67.87109375,-123.53515625,0.0
1742783540.9167087,-68.359375,-133.7890625,-62.98828125,-77.63671875,0.0
1742783540.9206247,68.359375,202.63671875,-22.94921875,46.875,0.0
1742783540.92453,12.6953125,248.53515625,-14.16015625,11.71875,0.0
1742783540.9284353,-124.51171875,-150.390625,-60.546875,-118.1640625,0.0
1742783540.9323406,-113.28125,-281.73828125,-71.77734375,-117.1875,0.0
1742783540.936246,34.1796875,70.80078125,-32.2265625,12.6953125,0.0
1742783540.9401512,76.171875,228.02734375,-22.4609375,56.15234375,0.0
1742783540.9440565,-73.73046875,-101.5625,-63.96484375,-66.40625,0.0
1742783540.947962,-122.55859375,-314.94140625,-88.8671875,-117.1875,0.0
1742783540.9518673,19.53125,-147.4609375,-56.640625,7.32421875,0.0
1742783540.9557726,91.796875,271.484375,-17.08984375,62.01171875,0.0
1742783540.959678,-28.3203125,112.3046875,-43.45703125,-36.62109375,0.0
1742783540.9635832,-121.09375,-384.765625,-82.51953125,-109.86328125,0.0
1742783540.9674985,-23.4375,-155.2734375,-53.7109375,-38.0859375,0.0
1742783540.9714038,87.40234375,348.14453125,-8.30078125,57.6171875,0.0
1742783540.9753091,20.99609375,245.60546875,-27.83203125,2.9296875,0.0
1742783540.9792144,-104.4921875,-278.80859375,-75.68359375,-106.4453125,0.0
1742783540.9831197,-60.546875,-262.6953125,-70.3125,-68.84765625,0.0
1742783540.987025,80.078125,171.38671875,-17.08984375,56.15234375,0.0
1742783540.9909306,62.5,251.46484375,-4.39453125,52.734375,0.0
1742783540.9948359,-90.33203125,-290.0390625,-72.75390625,-74.21875,0.0
1742783540.9987411,-90.8203125,-464.35546875,-87.40234375,-84.9609375,0.0
1742783541.0026464,45.41015625,167.48046875,-20.5078125,19.04296875,0.0
1742783541.0065517,87.40234375,393.06640625,-7.32421875,61.5234375,0.0
1742783541.010457,-47.8515625,-62.5,-55.17578125,-49.8046875,0.0
1742783541.0143714,-113.76953125,-321.77734375,-72.75390625,-112.79296875,0.0
1742783541.0182767,13.18359375,-29.78515625,-37.59765625,0.48828125,0.0
1742783541.022182,105.46875,246.58203125,-14.6484375,82.03125,0.0
1742783541.0260873,-14.6484375,36.1328125,-45.8984375,-15.625,0.0
1742783541.0299926,-122.55859375,-290.52734375,-70.80078125,-107.91015625,0.0
1742783541.0338979,-34.1796875,-179.6875,-46.38671875,-41.50390625,0.0
1742783541.0378032,75.68359375,201.171875,-11.71875,52.24609375,0.0
1742783541.0417085,21.97265625,63.96484375,-29.78515625,16.6015625,0.0
1742783541.045614,-125.48828125,-298.828125,-72.75390625,-108.3984375,0.0
1742783541.0495193,-94.7265625,-152.83203125,-59.08203125,-95.21484375,0.0
1742783541.0534246,54.6875,137.6953125,-21.97265625,39.0625,0.0
1742783541.05733,51.7578125,230.46875,-15.625,48.828125,0.0
1742783541.0612433,-104.4921875,-96.19140625,-56.640625,-97.16796875,0.0
1742783541.0651488,-126.953125,-275.87890625,-68.359375,-114.2578125,0.0
1742783541.0690541,19.53125,20.01953125,-28.3203125,19.04296875,0.0
1742783541.0729594,76.66015625,271.484375,-5.859375,72.265625,0.0
1742783541.0768647,-54.6875,-38.0859375,-41.015625,-44.921875,0.0
1742783541.08077,-134.765625,-371.09375,-71.77734375,-122.0703125,0.0
1742783541.0846753,-20.5078125,-196.77734375,-46.875,-14.16015625,0.0
1742783541.0885806,82.51953125,151.85546875,-4.8828125,87.890625,0.0
1742783541.092486,-17.08984375,182.12890625,-14.6484375,0.48828125,0.0
1742783541.0963912,-131.8359375,-217.7734375,-62.98828125,-115.234375,0.0
1742783541.1002965,-54.6875,-209.9609375,-49.8046875,-49.8046875,0.0
1742783541.1042018,75.1953125,228.515625,-0.9765625,62.98828125,0.0
1742783541.1081147,26.3671875,297.8515625,-0.48828125,28.3203125,0.0
1742783541.1120203,-119.140625,-197.265625,-52.734375,-102.05078125,0.0
1742783541.1159256,-100.09765625,-300.29296875,-61.5234375,-95.703125,0.0
1742783541.1198308,41.015625,168.45703125,-13.671875,21.97265625,0.0
1742783541.1237361,48.33984375,314.94140625,-4.8828125,35.64453125,0.0
1742783541.1276414,-109.375,-166.015625,-60.05859375,-87.40234375,0.0
1742783541.1315467,-127.9296875,-526.3671875,-87.40234375,-102.05078125,0.0
1742783541.135452,16.6015625,-75.1953125,-36.62109375,5.37109375,0.0
1742783541.1393573,71.2890625,419.921875,-0.48828125,51.7578125,0.0
1742783541.1432626,-54.19921875,40.0390625,-48.828125,-45.8984375,0.0
1742783541.147168,-140.13671875,-415.0390625,-88.8671875,-130.37109375,0.0
1742783541.1510732,-28.3203125,-125.0,-53.7109375,-39.0625,0.0
1742783541.1549852,76.171875,349.609375,-7.32421875,62.5,0.0
1742783541.1588905,-4.39453125,122.55859375,-33.69140625,4.39453125,0.0
1742783541.1627958,-126.46484375,-330.56640625,-75.68359375,-109.375,0.0
1742783541.166701,-70.80078125,-172.36328125,-53.7109375,-72.75390625,0.0
1742783541.1706064,59.08203125,259.765625,-5.859375,40.0390625,0.0
1742783541.1745117,37.59765625,115.234375,-15.13671875,40.52734375,0.0
1742783541.178417,-108.88671875,-350.09765625,-66.40625,-82.03125,0.0
1742783541.1823223,-106.93359375,-238.28125,-62.5,-104.4921875,0.0
1742783541.1862276,43.45703125,185.546875,-15.13671875,5.37109375,0.0
1742783541.190133,84.9609375,217.28515625,-15.13671875,57.6171875,0.0
1742783541.1940384,-41.50390625,-154.78515625,-69.82421875,-35.64453125,0.0
1742783541.1979437,-114.74609375,-254.39453125,-64.453125,-123.046875,0.0
1742783541.2018619,-16.11328125,25.87890625,-18.5546875,-42.96875,0.0
1742783541.2057672,65.4296875,284.1796875,-2.44140625,45.8984375,0.0
1742783541.2096725,-64.453125,60.546875,-35.64453125,-59.5703125,0.0
1742783541.213578,-184.08203125,-277.34375,-69.3359375,-168.45703125,0.0
1742783541.2174833,-86.42578125,-128.90625,-42.96875,-95.703125,0.0
1742783541.2213886,42.48046875,181.640625,0.48828125,24.90234375,0.0
1742783541.2252939,-16.11328125,129.8828125,-8.7890625,-8.30078125,0.0
1742783541.2291992,-154.78515625,-207.51953125,-52.24609375,-130.859375,0.0
1742783541.2331045,-100.5859375,-244.62890625,-47.36328125,-92.7734375,0.0
1742783541.2370098,55.6640625,81.0546875,-7.32421875,40.52734375,0.0
1742783541.240915,43.45703125,217.28515625,4.8828125,44.43359375,0.0
1742783541.2448204,-111.328125,-141.6015625,-44.43359375,-92.7734375,0.0
1742783541.2487373,-114.2578125,-338.37890625,-65.91796875,-112.79296875,0.0
1742783541.2526426,28.80859375,56.15234375,-20.99609375,13.671875,0.0
1742783541.2565482,58.59375,372.0703125,7.32421875,53.22265625,0.0
1742783541.2604535,-79.1015625,7.32421875,-37.109375,-55.6640625,0.0
1742783541.2643588,-135.25390625,-363.28125,-58.59375,-112.79296875,0.0
1742783541.268264,-7.32421875,-121.58203125,-26.3671875,-14.16015625,0.0
1742783541.2721694,83.49609375,300.78125,-1.46484375,62.98828125,0.0
1742783541.2760746,-28.80859375,177.24609375,-29.78515625,-26.3671875,0.0
1742783541.27998,-134.27734375,-407.2265625,-88.8671875,-110.3515625,0.0
1742783541.2838852,-48.828125,-325.1953125,-50.78125,-42.96875,0.0
1742783541.2877905,73.73046875,340.8203125,36.1328125,63.4765625,0.0
1742783541.2916958,24.90234375,270.5078125,0.9765625,29.78515625,0.0
1742783541.2956119,-127.44140625,-255.37109375,-74.70703125,-102.5390625,0.0
1742783541.2995174,-98.6328125,-230.46875,-66.40625,-86.42578125,0.0
1742783541.3034227,50.78125,187.98828125,-13.18359375,33.69140625,0.0
1742783541.307328,49.31640625,240.72265625,-4.39453125,41.015625,0.0
1742783541.3112333,-99.609375,-173.828125,-48.828125,-82.51953125,0.0
1742783541.3151386,-119.140625,-356.93359375,-70.80078125,-101.5625,0.0
1742783541.3190439,19.04296875,42.48046875,-32.2265625,2.9296875,0.0
1742783541.3229492,71.2890625,337.890625,-5.859375,54.6875,0.0
1742783541.3268545,-56.15234375,-125.48828125,-55.6640625,-44.921875,0.0
1742783541.3307598,-136.71875,-357.91015625,-75.68359375,-120.1171875,0.0
1742783541.334665,-20.01953125,3.90625,-36.1328125,-21.97265625,0.0
1742783541.3385704,93.26171875,257.32421875,-7.32421875,75.1953125,0.0
1742783541.3424857,-1.46484375,126.953125,-25.87890625,-4.39453125,0.0
1742783541.346391,-119.62890625,-218.26171875,-65.91796875,-119.140625,0.0
1742783541.3502963,-41.50390625,-118.65234375,-45.8984375,-52.24609375,0.0
1742783541.3542016,84.9609375,229.00390625,5.37109375,62.98828125,0.0
1742783541.3581069,29.78515625,188.4765625,-5.37109375,25.390625,0.0
1742783541.3620121,-122.55859375,-253.41796875,-64.94140625,-98.14453125,0.0
1742783541.3659174,-105.95703125,-326.171875,-66.89453125,-96.6796875,0.0
1742783541.3698227,39.55078125,-2.9296875,-26.3671875,39.0625,0.0
1742783541.3737283,50.78125,143.06640625,-6.8359375,71.77734375,0.0
1742783541.3776336,-108.88671875,-46.875,-34.1796875,-71.77734375,0.0
1742783541.3815389,-140.13671875,-257.8125,-54.6875,-119.62890625,0.0
1742783541.3854442,4.39453125,12.6953125,-25.390625,-2.9296875,0.0
1742783541.3893585,69.82421875,330.56640625,-1.46484375,57.6171875,0.0
1742783541.3932638,-44.43359375,81.0546875,-30.2734375,-46.38671875,0.0
1742783541.3971694,-125.0,-324.21875,-79.58984375,-121.58203125,0.0
1742783541.4010746,-16.6015625,-126.46484375,-54.19921875,-27.83203125,0.0
1742783541.40498,94.7265625,298.828125,-2.9296875,57.6171875,0.0
1742783541.4088852,15.13671875,121.09375,-21.97265625,-1.46484375,0.0
1742783541.4127905,-113.28125,-319.82421875,-54.19921875,-113.76953125,0.0
1742783541.4166958,-51.7578125,-354.4921875,-50.78125,-66.40625,0.0
1742783541.4206011,71.77734375,154.296875,-20.99609375,56.640625,0.0
1742783541.4245064,32.2265625,372.55859375,-12.6953125,37.109375,0.0
1742783541.4284117,-108.3984375,-195.80078125,-62.98828125,-81.54296875,0.0
1742783541.432317,-98.14453125,-320.3125,-68.359375,-81.0546875,0.0
1742783541.436231,55.17578125,184.08203125,-15.13671875,37.109375,0.0
1742783541.4401362,82.51953125,382.32421875,1.46484375,60.546875,0.0
1742783541.4440415,-61.5234375,-102.05078125,-48.33984375,-45.8984375,0.0
1742783541.4479468,-118.65234375,-381.34765625,-73.73046875,-100.5859375,0.0
1742783541.451852,2.44140625,9.765625,-21.97265625,-5.37109375,0.0
1742783541.4557574,84.9609375,291.50390625,7.32421875,75.1953125,0.0
1742783541.4596627,-25.87890625,-84.9609375,-52.24609375,-6.8359375,0.0
1742783541.463568,-121.09375,-458.0078125,-90.33203125,-99.12109375,0.0
1742783541.4674733,-28.80859375,-56.640625,-50.29296875,-45.8984375,0.0
1742783541.4713786,84.47265625,350.09765625,-5.859375,59.08203125,0.0
1742783541.475284,24.90234375,135.7421875,-20.99609375,19.53125,0.0
1742783541.4791894,-112.79296875,-278.3203125,-64.453125,-104.98046875,0.0
1742783541.483102,-74.21875,-179.6875,-47.36328125,-75.68359375,0.0
1742783541.4870074,67.87109375,210.9375,-6.34765625,54.19921875,0.0
1742783541.490913,52.734375,237.79296875,-11.23046875,52.734375,0.0
1742783541.4948182,-88.37890625,-159.66796875,-53.22265625,-79.1015625,0.0
1742783541.4987235,-93.26171875,-304.19921875,-58.59375,-98.14453125,0.0
1742783541.5026288,57.6171875,4.39453125,-20.01953125,40.0390625,0.0
1742783541.506534,127.9296875,113.76953125,-9.765625,125.0,0.0
1742783541.5104394,-44.43359375,-128.41796875,-46.875,-27.34375,0.0
1742783541.5143447,-165.52734375,-245.60546875,-79.1015625,-167.48046875,0.0
1742783541.51825,-32.2265625,-32.2265625,-49.31640625,-49.31640625,0.0
1742783541.5221553,80.078125,230.46875,-13.18359375,62.98828125,0.0
1742783541.5260606,-31.25,55.6640625,-39.55078125,-33.203125,0.0
1742783541.5299728,-152.83203125,-294.43359375,-81.0546875,-143.06640625,0.0
1742783541.533878,-66.40625,-240.72265625,-63.4765625,-68.359375,0.0
1742783541.5377834,66.89453125,181.640625,-18.06640625,46.38671875,0.0
1742783541.541689,20.99609375,271.97265625,-20.5078125,7.8125,0.0
1742783541.5455942,-107.91015625,-175.78125,-64.94140625,-97.16796875,0.0
1742783541.5494995,-68.359375,-375.9765625,-68.359375,-72.265625,0.0
1742783541.5534048,58.10546875,18.06640625,-19.53125,32.71484375,0.0
1742783541.55731,51.26953125,350.5859375,2.44140625,46.38671875,0.0
1742783541.5612154,-94.23828125,-67.3828125,-53.22265625,-76.171875,0.0
1742783541.5651207,-125.0,-367.67578125,-76.171875,-103.02734375,0.0
1742783541.569026,15.13671875,36.62109375,-21.484375,14.16015625,0.0
1742783541.5729313,77.1484375,381.8359375,11.71875,62.5,0.0
1742783541.5768492,-56.15234375,8.7890625,-44.43359375,-37.59765625,0.0
1742783541.5807545,-125.48828125,-362.3046875,-82.51953125,-103.515625,0.0
1742783541.5846598,-15.13671875,-65.4296875,-30.76171875,-15.625,0.0
1742783541.588565,71.2890625,288.0859375,3.41796875,74.21875,0.0
1742783541.5924704,-11.71875,90.33203125,-30.76171875,2.44140625,0.0
1742783541.5963757,-128.41796875,-362.3046875,-74.70703125,-112.79296875,0.0
1742783541.6002812,-70.3125,-218.26171875,-54.19921875,-67.87109375,0.0
1742783541.6041865,49.31640625,313.96484375,-2.44140625,29.78515625,0.0
1742783541.6080918,13.18359375,251.953125,-14.6484375,12.6953125,0.0
1742783541.6119971,-119.140625,-315.91796875,-73.73046875,-102.05078125,0.0
1742783541.6159024,-112.3046875,-348.14453125,-68.84765625,-107.421875,0.0
1742783541.6198077,25.390625,182.6171875,-3.90625,7.8125,0.0
1742783541.6237247,49.8046875,317.3828125,3.90625,29.78515625,0.0
1742783541.62763,-92.7734375,-125.9765625,-58.10546875,-94.23828125,0.0
1742783541.6315353,-124.51171875,-288.0859375,-66.89453125,-130.37109375,0.0
1742783541.6354406,15.13671875,80.078125,-24.90234375,-6.34765625,0.0
1742783541.639346,66.40625,241.2109375,-18.06640625,52.24609375,0.0
1742783541.6432512,-53.22265625,-141.11328125,-50.29296875,-41.015625,0.0
1742783541.6471567,-119.62890625,-382.32421875,-69.82421875,-102.5390625,0.0
1742783541.651062,-15.13671875,-110.3515625,-38.57421875,-20.01953125,0.0
1742783541.6549673,95.703125,167.48046875,-7.32421875,82.03125,0.0
1742783541.6588726,22.94921875,13.18359375,-34.1796875,21.97265625,0.0
1742783541.662778,-117.67578125,-192.3828125,-66.40625,-103.515625,0.0
1742783541.6666832,-70.80078125,-127.44140625,-52.24609375,-70.3125,0.0
1742783541.6705995,69.82421875,211.9140625,-10.25390625,48.828125,0.0
1742783541.6745048,51.7578125,275.390625,-11.71875,38.0859375,0.0
1742783541.67841,-93.75,-134.765625,-54.19921875,-91.30859375,0.0
1742783541.6823153,-91.796875,-286.62109375,-58.59375,-92.28515625,0.0
1742783541.686221,58.59375,71.77734375,-9.27734375,35.64453125,0.0
1742783541.6901262,79.58984375,235.3515625,3.90625,57.12890625,0.0
1742783541.6940315,-71.2890625,-92.28515625,-43.45703125,-59.5703125,0.0
1742783541.6979368,-110.83984375,-309.08203125,-69.3359375,-111.81640625,0.0
1742783541.701842,28.3203125,-161.62109375,-47.8515625,-5.37109375,0.0
1742783541.7057474,98.6328125,256.8359375,2.44140625,77.63671875,0.0
1742783541.7096527,-15.625,119.62890625,-14.16015625,-14.16015625,0.0
1742783541.713558,-120.60546875,-373.046875,-70.80078125,-112.79296875,0.0
1742783541.7174814,-37.59765625,-147.94921875,-45.8984375,-42.96875,0.0
1742783541.7213867,79.58984375,332.03125,4.39453125,71.77734375,0.0
1742783541.725292,14.6484375,248.53515625,-10.25390625,15.13671875,0.0
1742783541.7291973,-109.86328125,-265.625,-63.4765625,-109.375,0.0
1742783541.7331026,-64.453125,-280.2734375,-60.05859375,-72.265625,0.0
1742783541.7370079,57.6171875,155.2734375,-17.08984375,37.109375,0.0
1742783541.7409132,41.9921875,248.53515625,-14.6484375,37.59765625,0.0
1742783541.7448184,-90.8203125,-280.76171875,-66.89453125,-79.58984375,0.0
1742783541.7487237,-93.75,-432.12890625,-73.2421875,-96.19140625,0.0
1742783541.7526293,38.57421875,169.921875,-9.765625,13.18359375,0.0
1742783541.7565346,92.7734375,397.94921875,4.39453125,81.54296875,0.0
1742783541.7604399,-16.11328125,-117.1875,-56.640625,0.48828125,0.0
1742783541.7643542,-87.890625,-368.65234375,-66.89453125,-90.33203125,0.0
1742783541.7682595,-8.7890625,39.0625,-4.8828125,-32.71484375,0.0
1742783541.7721648,61.5234375,308.10546875,19.53125,56.640625,0.0
1742783541.7760704,-19.04296875,56.640625,-2.44140625,-0.9765625,0.0
1742783541.7799757,-117.1875,-304.6875,-28.3203125,-93.75,0.0
1742783541.783881,-58.10546875,-202.63671875,-31.73828125,-42.48046875,0.0
1742783541.7877862,52.734375,174.8046875,5.37109375,68.84765625,0.0
1742783541.7916915,6.34765625,148.4375,12.20703125,40.0390625,0.0
1742783541.7955968,-123.046875,-207.03125,-30.2734375,-90.33203125,0.0
1742783541.7995021,-90.8203125,-178.7109375,-34.1796875,-68.359375,0.0
1742783541.8034074,44.43359375,145.01953125,4.39453125,59.5703125,0.0
1742783541.8073127,52.734375,136.71875,3.90625,69.82421875,0.0
1742783541.811227,-82.03125,-124.0234375,-33.69140625,-72.265625,0.0
1742783541.8151324,-104.00390625,-244.62890625,-47.36328125,-105.46875,0.0
1742783541.8190377,30.2734375,-3.90625,-21.484375,23.4375,0.0
1742783541.822943,83.49609375,316.40625,0.0,67.87109375,0.0
1742783541.8268483,-44.921875,55.17578125,-37.59765625,-55.17578125,0.0
1742783541.8307536,-116.69921875,-327.1484375,-71.77734375,-131.34765625,0.0
1742783541.8346589,-9.765625,-188.4765625,-42.96875,-35.15625,0.0
1742783541.8385642,78.61328125,174.8046875,-11.23046875,46.38671875,0.0
1742783541.8424695,-10.25390625,212.890625,-22.94921875,-31.73828125,0.0
1742783541.8463748,-120.60546875,-200.1953125,-63.4765625,-126.953125,0.0
1742783541.8502803,-51.7578125,-197.75390625,-51.7578125,-67.3828125,0.0
1742783541.8541856,67.87109375,255.37109375,-7.8125,46.38671875,0.0
1742783541.8580983,20.99609375,298.828125,-19.04296875,20.5078125,0.0
1742783541.8620038,-125.9765625,-187.98828125,-70.80078125,-111.81640625,0.0
1742783541.865909,-104.98046875,-295.8984375,-73.2421875,-109.86328125,0.0
1742783541.8698144,36.1328125,159.1796875,-23.92578125,27.34375,0.0
1742783541.8737197,44.43359375,276.3671875,-9.765625,59.08203125,0.0
1742783541.877625,-94.7265625,-172.8515625,-58.10546875,-83.49609375,0.0
1742783541.8815303,-121.58203125,-482.91015625,-80.078125,-123.53515625,0.0
1742783541.8854356,8.30078125,-43.9453125,-22.4609375,0.0,0.0
1742783541.8893409,66.89453125,438.96484375,22.4609375,76.171875,0.0
1742783541.8932462,-53.22265625,62.5,-33.203125,-29.296875,0.0
1742783541.8971515,-135.25390625,-385.7421875,-83.984375,-119.140625,0.0
1742783541.9010568,-26.85546875,-99.12109375,-45.8984375,-22.94921875,0.0
1742783541.9049687,73.2421875,365.72265625,5.859375,76.171875,0.0
1742783541.908874,-2.44140625,146.484375,-17.08984375,11.71875,0.0
1742783541.9127793,-115.72265625,-327.1484375,-63.4765625,-118.65234375,0.0
1742783541.9166846,-82.03125,-194.3359375,-44.43359375,-90.33203125,0.0
1742783541.92059,33.203125,248.046875,-1.46484375,25.87890625,0.0
1742783541.9244952,24.4140625,123.046875,-17.08984375,18.5546875,0.0
1742783541.9284005,-107.421875,-394.04296875,-71.2890625,-117.67578125,0.0
1742783541.9323058,-120.1171875,-285.64453125,-61.5234375,-143.5546875,0.0
1742783541.936211,24.4140625,192.3828125,-9.765625,-6.8359375,0.0
1742783541.9401164,62.5,291.015625,0.0,48.33984375,0.0
1742783541.944022,-83.0078125,-107.421875,-53.7109375,-76.171875,0.0
1742783541.9479272,-127.9296875,-311.5234375,-68.84765625,-132.8125,0.0
1742783541.951845,1.953125,22.4609375,-27.34375,-30.2734375,0.0
1742783541.9557502,85.44921875,310.05859375,1.953125,56.15234375,0.0
1742783541.9596555,-19.04296875,87.890625,-24.4140625,-23.92578125,0.0
1742783541.9635608,-126.46484375,-268.5546875,-76.66015625,-142.08984375,0.0
1742783541.9674664,-42.96875,-140.13671875,-62.98828125,-78.61328125,0.0
1742783541.9713717,76.171875,183.59375,-8.7890625,53.7109375,0.0
1742783541.975277,19.04296875,145.01953125,-15.13671875,10.7421875,0.0
1742783541.9791822,-81.0546875,-201.66015625,-68.84765625,-84.47265625,0.0
1742783541.9830875,-43.9453125,-232.421875,-68.84765625,-53.22265625,0.0
1742783541.9869928,33.69140625,80.078125,-28.3203125,14.6484375,0.0
1742783541.9908981,19.04296875,207.51953125,-18.06640625,12.20703125,0.0
1742783541.9948034,-117.1875,-108.3984375,-53.22265625,-122.0703125,0.0
1742783541.9987204,-143.06640625,-298.33984375,-69.3359375,-154.78515625,0.0
1742783542.002626,-9.27734375,58.59375,-38.0859375,-25.87890625,0.0
1742783542.0065312,20.01953125,369.140625,-6.34765625,7.8125,0.0
1742783542.0104365,-115.234375,19.04296875,-39.0625,-116.69921875,0.0
1742783542.0143418,-165.0390625,-374.0234375,-80.56640625,-157.2265625,0.0
1742783542.0182471,-40.0390625,-153.3203125,-57.6171875,-42.48046875,0.0
1742783542.0221524,50.29296875,284.66796875,-9.27734375,29.78515625,0.0
1742783542.0260577,-41.015625,177.24609375,-24.4140625,-47.36328125,0.0
1742783542.029963,-133.7890625,-400.87890625,-77.63671875,-139.16015625,0.0
1742783542.0338683,-52.734375,-330.56640625,-55.17578125,-79.58984375,0.0
1742783542.0377736,43.45703125,341.796875,6.34765625,17.578125,0.0
1742783542.0416791,-3.90625,273.92578125,-8.7890625,-18.5546875,0.0
1742783542.0455952,-120.60546875,-268.5546875,-62.98828125,-145.5078125,0.0
1742783542.0495005,-91.796875,-247.55859375,-49.31640625,-124.51171875,0.0
1742783542.0534058,41.50390625,229.00390625,5.859375,12.6953125,0.0
1742783542.057311,46.875,308.59375,0.48828125,22.4609375,0.0
1742783542.0612164,-89.84375,-182.6171875,-61.03515625,-102.5390625,0.0
1742783542.0651217,-109.375,-391.11328125,-75.1953125,-135.7421875,0.0
1742783542.069027,23.4375,49.31640625,-21.484375,-7.32421875,0.0
1742783542.0729325,70.3125,342.7734375,5.859375,50.29296875,0.0
1742783542.0768378,-37.59765625,-74.70703125,-41.50390625,-58.10546875,0.0
1742783542.080743,-105.46875,-321.2890625,-70.80078125,-139.16015625,0.0
1742783542.0846484,-14.16015625,-43.9453125,-37.59765625,-45.41015625,0.0
1742783542.0885537,81.54296875,224.609375,-7.32421875,61.03515625,0.0
1742783542.092469,2.9296875,61.5234375,-30.76171875,-11.71875,0.0
1742783542.0963743,-118.65234375,-236.81640625,-58.59375,-122.0703125,0.0
1742783542.1002796,-58.59375,-161.62109375,-46.38671875,-57.6171875,0.0
1742783542.1041849,54.19921875,169.43359375,-13.18359375,65.91796875,0.0
1742783542.1080902,17.08984375,213.8671875,-14.6484375,37.109375,0.0
1742783542.1119955,-106.4453125,-240.72265625,-71.2890625,-90.8203125,0.0
1742783542.1159008,-90.8203125,-268.5546875,-74.21875,-104.4921875,0.0
1742783542.1198063,51.26953125,69.82421875,-32.2265625,33.203125,0.0
1742783542.1237116,69.82421875,147.94921875,-24.90234375,71.77734375,0.0
1742783542.127617,-77.1484375,-46.38671875,-55.6640625,-87.40234375,0.0
1742783542.1315222,-111.328125,-264.16015625,-73.73046875,-139.6484375,0.0
1742783542.1354275,23.92578125,-4.8828125,-33.69140625,-8.7890625,0.0
1742783542.1393425,83.49609375,314.453125,-0.48828125,61.5234375,0.0
1742783542.1432478,-33.203125,69.82421875,-27.83203125,-45.41015625,0.0
1742783542.1471531,-110.83984375,-340.8203125,-62.01171875,-128.90625,0.0
1742783542.1510584,-13.18359375,-174.31640625,-35.64453125,-24.4140625,0.0
1742783542.1549637,83.49609375,252.44140625,-0.9765625,79.58984375,0.0
1742783542.158869,-12.6953125,116.69921875,-35.64453125,-14.16015625,0.0
1742783542.1627746,-139.6484375,-350.09765625,-81.0546875,-133.30078125,0.0
1742783542.1666799,-62.5,-407.71484375,-81.54296875,-71.2890625,0.0
1742783542.1705852,60.05859375,132.8125,-23.92578125,43.45703125,0.0
1742783542.1744905,31.25,340.8203125,-3.41796875,23.4375,0.0
1742783542.1783957,-98.14453125,-233.88671875,-69.3359375,-104.4921875,0.0
1742783542.182301,-95.21484375,-353.02734375,-78.61328125,-104.00390625,0.0
1742783542.1862154,35.15625,155.76171875,-24.90234375,33.203125,0.0
1742783542.1901207,64.453125,365.72265625,-3.41796875,63.4765625,0.0
1742783542.194026,-59.5703125,-107.421875,-57.6171875,-63.4765625,0.0
1742783542.1979313,-106.93359375,-391.11328125,-91.796875,-113.76953125,0.0
1742783542.2018366,12.20703125,-0.9765625,-45.8984375,-13.671875,0.0
1742783542.205742,86.42578125,294.43359375,-11.23046875,62.98828125,0.0
1742783542.2096472,-22.4609375,-68.84765625,-50.29296875,-25.87890625,0.0
1742783542.2135525,-117.1875,-513.671875,-92.7734375,-127.9296875,0.0
1742783542.2174578,-40.0390625,-120.1171875,-49.8046875,-58.10546875,0.0
1742783542.221363,62.98828125,371.09375,1.953125,55.6640625,0.0
1742783542.2252684,8.7890625,190.4296875,-15.13671875,12.6953125,0.0
1742783542.229174,-120.1171875,-256.34765625,-65.4296875,-97.65625,0.0
1742783542.2330868,-89.35546875,-192.87109375,-57.6171875,-57.12890625,0.0
1742783542.2369921,42.96875,216.30859375,-7.8125,48.828125,0.0
1742783542.2408974,38.0859375,241.2109375,0.48828125,48.828125,0.0
1742783542.2448027,-101.5625,-166.9921875,-46.38671875,-86.9140625,0.0
1742783542.248708,-115.234375,-316.89453125,-72.75390625,-120.60546875,0.0
1742783542.2526135,7.32421875,18.5546875,-37.109375,13.18359375,0.0
1742783542.2565188,53.22265625,134.27734375,-19.04296875,76.171875,0.0
1742783542.2604241,-62.5,-133.30078125,-47.36328125,-48.828125,0.0
1742783542.2643294,-130.37109375,-249.51171875,-62.01171875,-130.859375,0.0
1742783542.2682347,-25.87890625,-46.38671875,-32.71484375,-34.1796875,0.0
1742783542.27214,55.6640625,226.5625,-4.39453125,67.87109375,0.0
1742783542.2760453,-41.50390625,41.50390625,-36.1328125,-10.25390625,0.0
1742783542.2799578,-143.5546875,-295.8984375,-77.1484375,-152.83203125,0.0
1742783542.283863,-64.94140625,-178.7109375,-48.828125,-91.30859375,0.0
1742783542.2877684,49.31640625,218.75,9.765625,52.24609375,0.0
1742783542.291674,0.48828125,253.41796875,0.9765625,4.39453125,0.0
1742783542.2955792,-125.0,-199.70703125,-48.828125,-130.37109375,0.0
1742783542.2994845,-92.7734375,-395.5078125,-59.5703125,-88.37890625,0.0
1742783542.3033898,38.0859375,-10.25390625,-27.34375,47.36328125,0.0
1742783542.307295,36.62109375,322.75390625,-5.37109375,48.828125,0.0
1742783542.3112004,-96.6796875,-79.58984375,-47.36328125,-80.078125,0.0
1742783542.3151057,-108.88671875,-382.8125,-71.77734375,-105.46875,0.0
1742783542.319011,18.06640625,28.3203125,-21.484375,24.90234375,0.0
1742783542.3229163,50.78125,347.65625,3.41796875,69.82421875,0.0
1742783542.326835,-69.82421875,-54.19921875,-53.22265625,-51.26953125,0.0
1742783542.3307402,-119.62890625,-381.8359375,-86.42578125,-112.79296875,0.0
1742783542.3346455,-26.3671875,-69.3359375,-40.52734375,-13.18359375,0.0
1742783542.3385508,56.640625,340.8203125,-10.7421875,70.3125,0.0
1742783542.3424563,15.13671875,140.13671875,-60.05859375,21.97265625,0.0
1742783542.3463616,-92.7734375,-375.48828125,-91.796875,-93.26171875,0.0
1742783542.350267,-95.21484375,-254.8828125,-43.45703125,-103.515625,0.0
1742783542.3541722,21.484375,276.3671875,6.8359375,35.15625,0.0
1742783542.3580775,21.484375,227.05078125,-9.765625,54.6875,0.0
1742783542.3619828,-106.4453125,-369.62890625,-68.84765625,-74.70703125,0.0
1742783542.365888,-106.4453125,-413.0859375,-59.08203125,-77.1484375,0.0
1742783542.3697934,29.296875,113.76953125,2.44140625,54.6875,0.0
1742783542.3737104,60.05859375,268.5546875,15.625,83.49609375,0.0
1742783542.3776157,-87.40234375,-152.34375,-34.1796875,-60.546875,0.0
1742783542.3815212,-127.44140625,-316.89453125,-58.59375,-109.375,0.0
1742783542.3854265,18.5546875,-0.9765625,-18.06640625,28.3203125,0.0
1742783542.3893318,84.9609375,236.328125,7.8125,104.00390625,0.0
1742783542.393237,-27.83203125,-59.5703125,-25.390625,-4.39453125,0.0
1742783542.3971424,-104.98046875,-354.00390625,-63.4765625,-104.00390625,0.0
1742783542.4010477,-18.06640625,-37.59765625,-30.76171875,-24.90234375,0.0
1742783542.404953,85.9375,202.1484375,4.8828125,97.16796875,0.0
1742783542.4088583,16.6015625,-1.46484375,-17.08984375,37.59765625,0.0
1742783542.4127636,-94.23828125,-207.03125,-43.45703125,-95.21484375,0.0
1742783542.416669,-41.9921875,-155.2734375,-33.69140625,-46.875,0.0
1742783542.4205852,77.1484375,192.3828125,0.48828125,84.47265625,0.0
1742783542.4244905,63.96484375,276.85546875,1.46484375,65.91796875,0.0
1742783542.4283957,-79.58984375,-134.765625,-44.921875,-83.0078125,0.0
1742783542.432301,-80.078125,-290.52734375,-58.59375,-92.7734375,0.0
1742783542.4362063,44.921875,51.26953125,-23.4375,33.69140625,0.0
1742783542.4401116,60.05859375,218.75,-7.32421875,52.734375,0.0
1742783542.444017,-62.5,-135.25390625,-48.33984375,-64.94140625,0.0
1742783542.4479222,-124.0234375,-376.953125,-72.75390625,-115.72265625,0.0
1742783542.4518275,-8.30078125,-146.97265625,-39.0625,12.6953125,0.0
1742783542.455733,70.3125,279.296875,-2.44140625,82.03125,0.0
1742783542.4596384,-32.2265625,120.60546875,-30.76171875,-20.01953125,0.0
1742783542.4635437,-126.46484375,-364.2578125,-74.70703125,-109.375,0.0
1742783542.467459,-48.33984375,-145.99609375,-37.109375,-39.0625,0.0
1742783542.4713643,66.40625,336.9140625,16.11328125,87.890625,0.0
1742783542.4752696,6.8359375,251.953125,-2.44140625,41.015625,0.0
1742783542.4791749,-123.53515625,-280.76171875,-59.5703125,-83.49609375,0.0
1742783542.4830801,-82.03125,-280.76171875,-54.19921875,-61.03515625,0.0
1742783542.4869854,53.22265625,175.29296875,-1.46484375,54.19921875,0.0
1742783542.490891,49.8046875,255.859375,3.90625,67.3828125,0.0
1742783542.4947963,-80.56640625,-278.3203125,-59.08203125,-67.87109375,0.0
1742783542.4987016,-89.84375,-492.67578125,-77.1484375,-102.5390625,0.0
1742783542.5026069,21.97265625,135.7421875,-11.71875,16.6015625,0.0
1742783542.5065122,56.640625,426.7578125,11.71875,62.5,0.0
1742783542.5104175,-63.96484375,-29.296875,-35.64453125,-73.2421875,0.0
1742783542.514339,-122.55859375,-321.77734375,-69.3359375,-148.4375,0.0
1742783542.5182443,-16.11328125,13.18359375,-46.875,-44.43359375,0.0
1742783542.5221496,62.01171875,324.70703125,-12.6953125,44.43359375,0.0
1742783542.5260549,-34.66796875,60.546875,-34.66796875,-30.2734375,0.0
1742783542.5299602,-134.765625,-324.70703125,-77.63671875,-131.8359375,0.0
1742783542.5338655,-59.08203125,-208.984375,-60.546875,-68.359375,0.0
1742783542.5377707,55.6640625,212.890625,-7.32421875,54.19921875,0.0
1742783542.541676,20.99609375,68.359375,-26.3671875,29.296875,0.0
1742783542.5455816,-118.65234375,-310.546875,-74.21875,-116.69921875,0.0
1742783542.5494869,-103.515625,-187.5,-54.6875,-105.95703125,0.0
1742783542.5533922,34.66796875,128.41796875,-8.7890625,37.59765625,0.0
1742783542.5572975,37.59765625,218.75,-2.9296875,50.78125,0.0
1742783542.5612109,-97.16796875,-114.2578125,-46.875,-78.61328125,0.0
1742783542.5651164,-122.0703125,-263.18359375,-53.7109375,-102.05078125,0.0
1742783542.5690217,19.53125,22.94921875,-23.92578125,17.578125,0.0
1742783542.572927,98.6328125,286.1328125,-26.85546875,104.4921875,0.0
1742783542.5768323,0.9765625,23.4375,-60.546875,0.48828125,0.0
1742783542.5807376,-111.328125,-380.859375,-70.80078125,-133.7890625,0.0
1742783542.584643,-44.921875,-223.14453125,-33.69140625,-48.828125,0.0
1742783542.5885482,62.98828125,217.28515625,20.5078125,81.0546875,0.0
1742783542.5924535,-13.18359375,168.45703125,-4.39453125,-11.23046875,0.0
1742783542.5963588,-125.48828125,-247.55859375,-63.4765625,-133.30078125,0.0
1742783542.600264,-59.5703125,-337.40234375,-54.19921875,-54.19921875,0.0
1742783542.6041696,53.7109375,32.71484375,-5.37109375,62.01171875,0.0
1742783542.6080823,14.6484375,291.015625,8.7890625,31.25,0.0
1742783542.6119876,-115.72265625,-211.9140625,-49.31640625,-111.328125,0.0
1742783542.615893,-100.5859375,-347.16796875,-62.01171875,-119.140625,0.0
1742783542.6197982,22.94921875,169.921875,-9.765625,12.6953125,0.0
1742783542.6237035,37.109375,344.7265625,2.44140625,39.0625,0.0
1742783542.6276088,-82.51953125,-141.11328125,-49.8046875,-86.9140625,0.0
1742783542.6315143,-104.98046875,-528.80859375,-83.984375,-122.0703125,0.0
1742783542.6354196,3.90625,-78.61328125,-33.203125,-16.6015625,0.0
1742783542.639325,61.5234375,428.7109375,13.671875,47.36328125,0.0
1742783542.6432302,-32.2265625,62.5,-28.80859375,-33.203125,0.0
1742783542.6471355,-106.93359375,-404.296875,-76.66015625,-121.09375,0.0
1742783542.6510408,-19.53125,-126.953125,-45.8984375,-47.8515625,0.0
1742783542.6549525,68.84765625,371.09375,2.9296875,51.26953125,0.0
1742783542.6588578,7.32421875,163.57421875,-24.4140625,-0.9765625,0.0
1742783542.662763,-103.02734375,-309.08203125,-67.3828125,-120.1171875,0.0
1742783542.6666684,-59.08203125,-190.4296875,-50.29296875,-81.54296875,0.0
1742783542.6705737,62.5,199.70703125,-5.37109375,52.24609375,0.0
1742783542.674479,41.50390625,124.0234375,-11.23046875,52.734375,0.0
1742783542.6783843,-83.984375,-323.73046875,-62.5,-70.80078125,0.0
1742783542.6822896,-89.84375,-247.55859375,-60.05859375,-78.61328125,0.0
1742783542.686195,25.390625,184.5703125,-12.6953125,44.43359375,0.0
1742783542.6901004,65.91796875,289.55078125,-4.8828125,74.70703125,0.0
1742783542.6940057,-56.15234375,-88.8671875,-50.29296875,-72.265625,0.0
1742783542.697911,-110.3515625,-283.69140625,-63.96484375,-134.765625,0.0
1742783542.7018287,5.859375,0.48828125,-29.296875,1.46484375,0.0
1742783542.705734,81.0546875,275.390625,0.48828125,92.28515625,0.0
1742783542.7096395,-18.5546875,59.08203125,-27.34375,-15.13671875,0.0
1742783542.7135448,-111.81640625,-296.875,-71.2890625,-114.2578125,0.0
1742783542.7174501,-28.3203125,-153.3203125,-50.29296875,-38.57421875,0.0
1742783542.7213554,85.44921875,177.24609375,-12.6953125,75.68359375,0.0
1742783542.7252607,33.203125,86.9140625,-29.78515625,33.203125,0.0
1742783542.729166,-91.796875,-272.4609375,-80.078125,-104.98046875,0.0
1742783542.7330713,-62.5,-246.58203125,-82.51953125,-88.8671875,0.0
1742783542.7369766,59.08203125,75.68359375,-36.62109375,43.45703125,0.0
1742783542.740882,57.6171875,190.91796875,-23.4375,39.55078125,0.0
1742783542.7447872,-75.1953125,-129.39453125,-72.75390625,-108.88671875,0.0
1742783542.7487044,-89.35546875,-318.359375,-94.23828125,-121.09375,0.0
1742783542.7526097,27.83203125,29.78515625,-49.8046875,5.37109375,0.0
1742783542.756515,55.17578125,350.09765625,-11.23046875,54.19921875,0.0
1742783542.7604203,-66.40625,3.41796875,-51.26953125,-59.5703125,0.0
1742783542.7643256,-123.046875,-395.99609375,-89.35546875,-138.671875,0.0
1742783542.768231,-15.13671875,-167.96875,-56.640625,-35.15625,0.0
1742783542.7721362,64.94140625,280.2734375,-20.01953125,55.17578125,0.0
1742783542.7760415,-26.3671875,172.8515625,-39.0625,-38.57421875,0.0
1742783542.779947,-115.234375,-412.109375,-94.23828125,-151.85546875,0.0
1742783542.7838523,-38.57421875,-376.46484375,-81.54296875,-81.54296875,0.0
1742783542.7877576,62.5,286.62109375,-6.8359375,31.25,0.0
1742783542.791663,15.625,262.20703125,-13.18359375,5.37109375,0.0
1742783542.795579,-117.1875,-245.60546875,-69.82421875,-120.1171875,0.0
1742783542.7994843,-100.5859375,-246.09375,-63.96484375,-116.2109375,0.0
1742783542.8033895,18.5546875,208.0078125,-9.27734375,17.578125,0.0
1742783542.8072948,21.484375,302.24609375,2.44140625,25.87890625,0.0
1742783542.8112001,-110.83984375,-180.6640625,-60.546875,-106.93359375,0.0
1742783542.8151054,-119.140625,-414.0625,-83.0078125,-125.0,0.0
1742783542.8190107,4.8828125,16.6015625,-26.3671875,-6.34765625,0.0
1742783542.8229163,48.33984375,352.5390625,-1.953125,50.29296875,0.0
1742783542.8268216,-61.5234375,-146.484375,-66.40625,-62.01171875,0.0
1742783542.8307269,-141.6015625,-429.6875,-95.21484375,-145.01953125,0.0
1742783542.8346322,-45.8984375,-55.6640625,-54.19921875,-50.29296875,0.0
1742783542.8385375,57.12890625,228.02734375,-26.85546875,55.6640625,0.0
1742783542.8424525,-11.71875,97.65625,-46.38671875,1.953125,0.0
1742783542.846358,-128.90625,-244.62890625,-81.54296875,-124.0234375,0.0
1742783542.8502634,-79.58984375,-154.296875,-65.4296875,-86.42578125,0.0
1742783542.8541687,40.0390625,197.75390625,-11.23046875,39.0625,0.0
1742783542.858074,11.23046875,184.08203125,-14.6484375,18.06640625,0.0
1742783542.8619792,-120.60546875,-259.27734375,-73.2421875,-116.69921875,0.0
1742783542.8658845,-107.91015625,-329.1015625,-75.1953125,-109.375,0.0
1742783542.8697898,34.66796875,29.296875,-31.25,39.55078125,0.0
1742783542.8736951,53.7109375,165.0390625,-19.53125,64.453125,0.0
1742783542.8776004,-88.8671875,-36.62109375,-48.33984375,-81.0546875,0.0
1742783542.881506,-118.65234375,-255.37109375,-79.1015625,-123.53515625,0.0
1742783542.8854113,21.97265625,0.48828125,-60.546875,7.32421875,0.0
1742783542.8893256,87.40234375,333.0078125,-9.765625,69.82421875,0.0
1742783542.893231,-51.26953125,89.35546875,-22.94921875,-79.1015625,0.0
1742783542.8971362,-138.18359375,-363.76953125,-64.453125,-166.015625,0.0
1742783542.9010415,-29.78515625,-182.6171875,-37.109375,-45.8984375,0.0
1742783542.9049468,64.94140625,280.2734375,-3.41796875,63.4765625,0.0
1742783542.908852,-5.37109375,122.0703125,-30.2734375,10.25390625,0.0
1742783542.9127574,-117.67578125,-325.1953125,-67.87109375,-125.48828125,0.0
1742783542.916663,-67.3828125,-374.0234375,-70.3125,-94.23828125,0.0
1742783542.9205682,53.22265625,154.78515625,-20.99609375,35.64453125,0.0
1742783542.9244735,26.3671875,375.0,-1.953125,24.4140625,0.0
1742783542.9283788,-108.3984375,-212.890625,-64.94140625,-107.91015625,0.0
1742783542.932284,-107.91015625,-345.21484375,-76.66015625,-126.953125,0.0
1742783542.9361975,17.08984375,152.83203125,-28.80859375,1.46484375,0.0
1742783542.940103,48.33984375,368.65234375,-11.71875,50.29296875,0.0
1742783542.9440084,-74.70703125,-96.19140625,-62.98828125,-70.3125,0.0
1742783542.9479136,-122.0703125,-393.5546875,-89.35546875,-117.67578125,0.0
1742783542.951819,-8.30078125,-14.16015625,-50.29296875,-2.9296875,0.0
1742783542.9557242,68.359375,284.66796875,-22.94921875,69.82421875,0.0
1742783542.9596295,-20.99609375,-75.68359375,-58.59375,-24.90234375,0.0
1742783542.9635348,-114.2578125,-467.28515625,-95.703125,-123.53515625,0.0
1742783542.9674401,-44.43359375,-99.12109375,-55.17578125,-62.5,0.0
1742783542.9713454,67.87109375,337.890625,-8.7890625,58.59375,0.0
1742783542.9752507,24.4140625,159.1796875,-28.3203125,25.87890625,0.0
1742783542.9791563,-88.8671875,-284.66796875,-72.75390625,-101.5625,0.0
1742783542.983069,-59.08203125,-198.73046875,-63.4765625,-84.47265625,0.0
1742783542.9869742,57.6171875,201.66015625,-14.16015625,42.96875,0.0
1742783542.9908795,57.12890625,238.76953125,-7.32421875,54.6875,0.0
1742783542.9947848,-84.9609375,-157.71484375,-60.05859375,-87.40234375,0.0
1742783542.9986901,-102.5390625,-304.19921875,-72.265625,-113.28125,0.0
1742783543.0025957,27.83203125,29.296875,-25.390625,17.08984375,0.0
1742783543.006501,66.40625,137.6953125,-17.08984375,78.61328125,0.0
1742783543.0104063,-61.5234375,-170.41015625,-54.6875,-41.9921875,0.0
1742783543.0143116,-127.9296875,-275.390625,-57.6171875,-125.48828125,0.0
1742783543.0182168,-11.71875,-1.46484375,-25.87890625,-17.08984375,0.0
1742783543.0221221,74.21875,254.8828125,-2.44140625,81.0546875,0.0
1742783543.0260274,-18.06640625,100.09765625,-28.3203125,-8.7890625,0.0
1742783543.0299392,-120.1171875,-226.07421875,-63.4765625,-120.60546875,0.0
1742783543.0338445,-49.8046875,-167.96875,-55.6640625,-54.6875,0.0
1742783543.0377498,66.40625,220.21484375,-11.71875,66.89453125,0.0
1742783543.041655,21.484375,252.44140625,-11.23046875,35.64453125,0.0
1742783543.0455604,-105.95703125,-187.5,-58.10546875,-102.5390625,0.0
1742783543.049466,-79.58984375,-376.953125,-70.80078125,-85.9375,0.0
1742783543.0533712,40.52734375,8.7890625,-36.1328125,33.69140625,0.0
1742783543.0572765,33.203125,333.0078125,-11.23046875,27.83203125,0.0
1742783543.0611818,-96.6796875,-54.19921875,-57.6171875,-108.3984375,0.0
1742783543.065087,-107.421875,-421.38671875,-86.42578125,-127.9296875,0.0
1742783543.0689924,27.83203125,-87.40234375,-38.0859375,6.8359375,0.0
1742783543.0728977,78.125,381.34765625,5.37109375,60.546875,0.0
1742783543.0768154,-40.0390625,63.96484375,-28.3203125,-58.10546875,0.0
1742783543.0807207,-118.1640625,-352.05078125,-67.3828125,-139.16015625,0.0
1742783543.0846262,-26.3671875,-77.1484375,-39.0625,-42.48046875,0.0
1742783543.0885315,60.546875,344.7265625,3.41796875,52.734375,0.0
1742783543.0924368,-10.25390625,150.87890625,-20.99609375,-2.44140625,0.0
1742783543.096342,-109.375,-373.046875,-71.2890625,-107.91015625,0.0
1742783543.1002474,-50.78125,-257.32421875,-57.6171875,-60.546875,0.0
1742783543.1041527,57.6171875,287.109375,-1.46484375,56.15234375,0.0
1742783543.108058,27.83203125,259.27734375,-1.46484375,41.50390625,0.0
1742783543.1119633,-97.65625,-313.96484375,-62.01171875,-80.56640625,0.0
1742783543.1158686,-95.21484375,-361.81640625,-68.359375,-97.16796875,0.0
1742783543.1197739,23.4375,148.92578125,-13.18359375,28.80859375,0.0
1742783543.123691,42.48046875,293.45703125,2.44140625,64.94140625,0.0
1742783543.1275964,-76.66015625,-140.625,-43.45703125,-62.5,0.0
1742783543.1315017,-115.72265625,-302.734375,-58.59375,-113.28125,0.0
1742783543.135407,1.46484375,61.03515625,-16.6015625,8.30078125,0.0
1742783543.1393123,77.1484375,285.64453125,8.30078125,88.37890625,0.0
1742783543.1432176,-22.94921875,-64.453125,-35.64453125,-24.90234375,0.0
1742783543.147123,-113.28125,-354.00390625,-64.94140625,-126.46484375,0.0
1742783543.1510284,-40.0390625,-53.22265625,-30.2734375,-59.08203125,0.0
1742783543.1549337,62.5,186.03515625,-1.953125,58.59375,0.0
1742783543.158839,1.953125,-8.30078125,-27.83203125,15.625,0.0
1742783543.1627443,-124.51171875,-216.796875,-65.4296875,-135.7421875,0.0
1742783543.1666496,-72.75390625,-162.59765625,-59.08203125,-102.5390625,0.0
1742783543.1705658,51.7578125,183.10546875,-14.16015625,41.9921875,0.0
1742783543.1744711,41.015625,274.90234375,-7.32421875,28.80859375,0.0
1742783543.1783764,-91.30859375,-131.8359375,-64.94140625,-119.62890625,0.0
1742783543.1822817,-92.7734375,-336.9140625,-85.44921875,-114.2578125,0.0
1742783543.186187,39.0625,38.57421875,-32.71484375,25.87890625,0.0
1742783543.1900923,61.03515625,268.06640625,-9.27734375,70.80078125,0.0
1742783543.1939976,-71.2890625,-51.7578125,-45.8984375,-46.875,0.0
1742783543.1979032,-125.9765625,-285.64453125,-68.359375,-119.140625,0.0
1742783543.2018085,-12.20703125,-151.3671875,-41.9921875,1.953125,0.0
1742783543.2057137,59.08203125,248.046875,5.37109375,87.890625,0.0
1742783543.209619,-37.109375,125.0,-17.08984375,-14.16015625,0.0
1742783543.2135243,-126.46484375,-362.79296875,-73.2421875,-125.48828125,0.0
1742783543.2174397,-52.734375,-158.69140625,-45.41015625,-61.5234375,0.0
1742783543.221345,49.8046875,328.61328125,13.671875,55.17578125,0.0
1742783543.2252502,-3.90625,254.8828125,-1.46484375,5.37109375,0.0
1742783543.2291558,-123.046875,-279.296875,-66.89453125,-129.39453125,0.0
1742783543.233061,-85.44921875,-321.77734375,-66.40625,-95.21484375,0.0
1742783543.2369664,58.59375,138.18359375,-21.484375,57.6171875,0.0
1742783543.2408717,53.7109375,250.0,-10.25390625,57.6171875,0.0
1742783543.244777,-106.93359375,-290.52734375,-53.7109375,-110.3515625,0.0
1742783543.2486823,-117.67578125,-463.8671875,-82.51953125,-129.8828125,0.0
1742783543.2525876,28.80859375,122.0703125,-41.50390625,18.06640625,0.0
1742783543.2564929,78.125,381.34765625,-18.5546875,75.68359375,0.0
1742783543.2603981,-35.64453125,-134.765625,-75.68359375,-30.76171875,0.0
1742783543.264313,-89.35546875,-446.2890625,-102.5390625,-94.7265625,0.0
1742783543.2682185,12.6953125,-16.6015625,-58.59375,-1.46484375,0.0
1742783543.2721238,95.21484375,297.8515625,-26.3671875,104.98046875,0.0
1742783543.276029,13.18359375,34.1796875,-47.36328125,40.0390625,0.0
1742783543.2799344,-77.63671875,-335.44921875,-85.44921875,-75.1953125,0.0
1742783543.2838397,-12.20703125,-222.65625,-74.21875,-30.76171875,0.0
1742783543.287745,92.7734375,190.91796875,-30.76171875,83.49609375,0.0
1742783543.2916503,54.19921875,63.96484375,-41.015625,59.08203125,0.0
1742783543.2955556,-78.61328125,-361.81640625,-83.984375,-77.1484375,0.0
1742783543.299461,-71.2890625,-199.70703125,-62.01171875,-69.3359375,0.0
1742783543.3033664,58.10546875,167.96875,-19.04296875,75.1953125,0.0
1742783543.3072717,68.359375,254.39453125,-18.5546875,84.9609375,0.0
1742783543.3111851,-67.87109375,-87.890625,-58.59375,-70.3125,0.0
1742783543.3150904,-88.37890625,-266.6015625,-76.66015625,-104.98046875,0.0
1742783543.3189957,32.2265625,15.625,-41.9921875,17.578125,0.0
1742783543.3229012,83.0078125,269.53125,-16.11328125,81.0546875,0.0
1742783543.3268065,-20.99609375,6.34765625,-46.875,-26.85546875,0.0
1742783543.3307118,-93.26171875,-383.30078125,-83.49609375,-113.76953125,0.0
1742783543.3346171,-0.9765625,-222.65625,-61.03515625,-25.390625,0.0
1742783543.3385224,90.8203125,150.390625,-16.6015625,85.44921875,0.0
1742783543.3424277,3.41796875,193.359375,-20.99609375,4.8828125,0.0
1742783543.346333,-110.83984375,-198.2421875,-69.82421875,-120.1171875,0.0
1742783543.3502383,-46.38671875,-236.81640625,-65.91796875,-54.19921875,0.0
1742783543.3541436,72.75390625,186.5234375,-20.5078125,71.2890625,0.0
1742783543.3580568,35.64453125,300.29296875,-19.53125,47.36328125,0.0
1742783543.361962,-90.8203125,-169.921875,-72.75390625,-84.9609375,0.0
1742783543.3658674,-79.58984375,-315.91796875,-83.0078125,-85.44921875,0.0
1742783543.369773,37.109375,133.7890625,-30.76171875,55.6640625,0.0
1742783543.3736782,51.26953125,317.87109375,-10.25390625,89.84375,0.0
1742783543.3775835,-73.2421875,-148.92578125,-54.6875,-44.921875,0.0
1742783543.3814888,-104.98046875,-526.3671875,-76.66015625,-100.09765625,0.0
1742783543.385394,3.90625,-101.07421875,-34.66796875,3.90625,0.0
1742783543.3892994,56.640625,404.296875,5.37109375,62.5,0.0
1742783543.3932047,-39.0625,67.87109375,-35.15625,-32.71484375,0.0
1742783543.39711,-108.88671875,-392.578125,-82.51953125,-110.3515625,0.0
1742783543.4010153,-22.4609375,-131.34765625,-42.96875,-22.94921875,0.0
1742783543.4049275,70.80078125,350.5859375,5.859375,79.58984375,0.0
1742783543.4088328,8.7890625,147.4609375,-24.90234375,21.484375,0.0
1742783543.412738,-106.4453125,-322.75390625,-76.66015625,-104.4921875,0.0
1742783543.4166434,-57.6171875,-180.17578125,-61.5234375,-68.359375,0.0
1742783543.420549,52.734375,251.46484375,-15.13671875,48.33984375,0.0
1742783543.4244542,32.71484375,143.06640625,-20.01953125,47.36328125,0.0
1742783543.4283595,-91.796875,-369.140625,-72.75390625,-79.1015625,0.0
1742783543.4322648,-102.5390625,-280.2734375,-70.80078125,-108.3984375,0.0
1742783543.43617,21.484375,202.63671875,-20.01953125,13.671875,0.0
1742783543.4400754,54.6875,302.24609375,-9.27734375,56.15234375,0.0
1742783543.4439807,-71.2890625,-66.89453125,-54.6875,-68.84765625,0.0
1742783543.447886,-129.8828125,-258.7890625,-73.2421875,-131.34765625,0.0
1742783543.451804,-15.13671875,21.484375,-36.62109375,-22.4609375,0.0
1742783543.4557092,78.125,299.8046875,-5.859375,71.2890625,0.0
1742783543.4596145,-32.2265625,91.796875,-31.25,-25.87890625,0.0
1742783543.4635198,-125.48828125,-270.99609375,-66.89453125,-133.7890625,0.0
1742783543.467425,-38.0859375,-170.8984375,-45.8984375,-50.29296875,0.0
1742783543.4713304,47.8515625,144.04296875,-8.30078125,66.40625,0.0
1742783543.475236,-16.6015625,142.08984375,-19.04296875,21.484375,0.0
1742783543.4791412,-144.04296875,-178.7109375,-61.5234375,-120.1171875,0.0
1742783543.4830465,-108.3984375,-236.81640625,-62.5,-90.33203125,0.0
1742783543.4869518,23.92578125,120.60546875,-14.16015625,56.640625,0.0
1742783543.4908571,15.13671875,234.86328125,-7.32421875,51.26953125,0.0
1742783543.4947624,-114.74609375,-145.99609375,-53.7109375,-95.703125,0.0
1742783543.49868,-122.0703125,-326.171875,-63.96484375,-111.328125,0.0
1742783543.5025854,0.9765625,19.53125,-25.87890625,9.27734375,0.0
1742783543.5064907,41.50390625,342.7734375,-0.48828125,48.33984375,0.0
1742783543.5103962,-83.49609375,19.53125,-49.31640625,-71.77734375,0.0
1742783543.5143015,-139.6484375,-375.0,-93.26171875,-141.6015625,0.0
1742783543.5182068,-30.76171875,-171.875,-59.5703125,-34.1796875,0.0
1742783543.5221121,45.8984375,223.14453125,-17.08984375,64.453125,0.0
1742783543.5260174,-31.25,126.46484375,-39.0625,-28.80859375,0.0
1742783543.5299227,-125.9765625,-366.69921875,-82.51953125,-141.11328125,0.0
1742783543.533828,-62.01171875,-312.5,-60.05859375,-57.6171875,0.0
1742783543.5377333,38.57421875,329.58984375,-3.41796875,53.22265625,0.0
1742783543.5416386,4.8828125,313.4765625,-17.578125,0.0,0.0
1742783543.545555,-106.93359375,-225.5859375,-66.89453125,-133.30078125,0.0
1742783543.5494604,-83.0078125,-244.140625,-58.10546875,-108.3984375,0.0
1742783543.5533657,44.921875,216.30859375,-13.18359375,30.76171875,0.0
1742783543.5572712,56.640625,312.5,-9.765625,44.43359375,0.0
1742783543.5611765,-66.40625,-144.04296875,-53.7109375,-82.51953125,0.0
1742783543.5650818,-100.09765625,-365.72265625,-67.87109375,-121.09375,0.0
1742783543.5689871,7.8125,21.97265625,-26.85546875,-15.625,0.0
1742783543.5728924,65.91796875,346.19140625,0.0,56.15234375,0.0
1742783543.5767977,-40.52734375,-100.5859375,-49.31640625,-53.22265625,0.0
1742783543.580703,-119.140625,-408.69140625,-83.49609375,-144.53125,0.0
1742783543.5846083,-25.390625,-41.9921875,-44.921875,-37.109375,0.0
1742783543.5885136,65.4296875,291.015625,-7.32421875,79.1015625,0.0
1742783543.5924299,-4.39453125,144.53125,-27.83203125,-6.34765625,0.0
1742783543.5963352,-114.74609375,-217.7734375,-71.2890625,-142.578125,0.0
1742783543.6002405,-55.17578125,-111.81640625,-50.78125,-75.1953125,0.0
1742783543.6041458,71.2890625,234.375,-5.859375,59.5703125,0.0
1742783543.608051,37.109375,204.1015625,-14.6484375,29.296875,0.0
1742783543.6119566,-93.75,-229.00390625,-61.5234375,-106.93359375,0.0
1742783543.615862,-87.40234375,-319.3359375,-70.80078125,-105.95703125,0.0
1742783543.6197672,37.59765625,46.875,-32.71484375,33.69140625,0.0
1742783543.6236725,62.01171875,250.0,-14.6484375,71.2890625,0.0
1742783543.6275778,-68.84765625,-17.08984375,-45.8984375,-67.87109375,0.0
1742783543.631483,-102.05078125,-286.1328125,-66.89453125,-108.3984375,0.0
1742783543.6353884,20.01953125,-106.93359375,-35.15625,19.53125,0.0
1742783543.639303,76.66015625,235.3515625,5.37109375,88.8671875,0.0
1742783543.6432083,-30.76171875,104.4921875,-21.97265625,-17.578125,0.0
1742783543.6471136,-112.3046875,-283.69140625,-62.98828125,-119.140625,0.0
1742783543.6510189,-17.578125,-241.2109375,-42.48046875,-21.97265625,0.0
1742783543.6549242,86.9140625,174.31640625,0.48828125,97.65625,0.0
1742783543.6588295,15.13671875,164.55078125,-11.71875,27.34375,0.0
1742783543.6627347,-103.515625,-289.55078125,-62.5,-106.4453125,0.0
1742783543.66664,-62.01171875,-361.81640625,-52.734375,-60.05859375,0.0
1742783543.6705456,54.19921875,129.8828125,9.765625,69.82421875,0.0
1742783543.6744509,31.73828125,378.41796875,18.06640625,50.78125,0.0
1742783543.6783562,-94.7265625,-168.9453125,-43.9453125,-78.61328125,0.0
1742783543.6822615,-93.75,-326.66015625,-60.05859375,-100.5859375,0.0
1742783543.6861753,28.80859375,160.15625,-14.16015625,15.625,0.0
1742783543.6900806,64.94140625,375.9765625,7.8125,60.05859375,0.0
1742783543.693986,-66.89453125,-106.4453125,-36.1328125,-65.91796875,0.0
1742783543.6978912,-118.1640625,-390.13671875,-63.4765625,-119.140625,0.0
1742783543.7017965,-5.859375,0.9765625,-23.92578125,-4.39453125,0.0
1742783543.7057018,78.125,290.0390625,9.27734375,68.359375,0.0
1742783543.7096071,-2.9296875,-56.640625,-31.25,-23.4375,0.0
1742783543.7135127,-107.91015625,-469.7265625,-76.66015625,-123.53515625,0.0
1742783543.717418,-51.7578125,-92.28515625,-31.73828125,-59.08203125,0.0
1742783543.7213233,59.5703125,357.91015625,22.4609375,58.59375,0.0
1742783543.7252285,27.34375,184.08203125,9.27734375,36.62109375,0.0
1742783543.7291338,-101.5625,-253.41796875,-43.9453125,-98.14453125,0.0
1742783543.7330472,-72.75390625,-201.171875,-48.33984375,-93.75,0.0
1742783543.7369525,60.05859375,208.0078125,5.37109375,53.7109375,0.0
1742783543.7408578,48.33984375,233.88671875,28.80859375,78.125,0.0
1742783543.7447631,-63.96484375,-183.10546875,-8.30078125,-32.71484375,0.0
1742783543.7486684,-86.9140625,-339.84375,-37.59765625,-74.70703125,0.0
1742783543.7525737,-18.06640625,-20.01953125,-13.671875,12.20703125,0.0
1742783543.7564793,-1.953125,171.875,7.8125,32.71484375,0.0
1742783543.7603846,-131.34765625,-103.02734375,-18.06640625,-123.046875,0.0
1742783543.7642899,-211.42578125,-288.57421875,-37.109375,-199.70703125,0.0
1742783543.7681952,-118.65234375,-58.10546875,-9.765625,-108.88671875,0.0
1742783543.7721004,-28.80859375,204.58984375,28.3203125,-26.85546875,0.0
1742783543.7760057,-152.34375,101.5625,-1.953125,-140.13671875,0.0
1742783543.7799175,-274.90234375,-200.1953125,-41.015625,-274.90234375,0.0
1742783543.7838228,-181.640625,-146.97265625,-20.01953125,-190.91796875,0.0
1742783543.787728,-75.68359375,247.55859375,25.390625,-77.63671875,0.0
1742783543.7916334,-145.5078125,300.78125,16.11328125,-140.625,0.0
1742783543.7955387,-271.484375,-134.27734375,-35.15625,-261.23046875,0.0
1742783543.799444,-250.0,-332.03125,-32.71484375,-249.51171875,0.0
1742783543.8033493,-126.46484375,62.98828125,8.7890625,-129.8828125,0.0
1742783543.8072548,-129.8828125,375.0,28.3203125,-105.46875,0.0
1742783543.81116,-286.62109375,-13.18359375,-9.27734375,-253.90625,0.0
1742783543.8150654,-292.96875,-268.06640625,-25.87890625,-283.69140625,0.0
1742783543.8189707,-143.5546875,106.93359375,21.484375,-151.3671875,0.0
1742783543.822876,-100.5859375,473.6328125,48.828125,-99.12109375,0.0
1742783543.8267944,-229.00390625,128.41796875,11.23046875,-205.56640625,0.0
1742783543.8306997,-304.19921875,-274.90234375,-21.97265625,-276.85546875,0.0
1742783543.834605,-182.6171875,1.953125,4.39453125,-177.734375,0.0
1742783543.8385103,-59.08203125,416.9921875,42.48046875,-64.94140625,0.0
1742783543.8424156,-139.6484375,229.00390625,21.484375,-140.625,0.0
1742783543.846321,-271.484375,-280.76171875,-26.3671875,-263.18359375,0.0
1742783543.8502264,-213.37890625,-210.44921875,-18.06640625,-206.54296875,0.0
1742783543.8541317,-67.87109375,324.21875,36.62109375,-64.94140625,0.0
1742783543.858037,-92.7734375,347.65625,36.1328125,-76.66015625,0.0
1742783543.8619423,-240.234375,-244.62890625,-20.01953125,-215.33203125,0.0
1742783543.8658476,-224.609375,-291.015625,-17.08984375,-219.23828125,0.0
1742783543.869753,-83.984375,210.44921875,20.99609375,-102.5390625,0.0
1742783543.8736706,-46.875,362.3046875,24.4140625,-48.33984375,0.0
1742783543.8775759,-180.6640625,-20.99609375,-17.578125,-161.1328125,0.0
1742783543.8814812,-247.0703125,-223.6328125,-34.66796875,-238.28125,0.0
1742783543.8853865,-124.51171875,134.27734375,9.27734375,-120.1171875,0.0
1742783543.8892918,-33.203125,360.3515625,39.0625,-28.80859375,0.0
1742783543.893197,-159.66796875,-3.41796875,0.48828125,-125.9765625,0.0
1742783543.8971024,-259.765625,-289.55078125,-29.78515625,-217.28515625,0.0
1742783543.9010077,-164.55078125,13.671875,6.34765625,-153.80859375,0.0
1742783543.9049132,-14.16015625,253.41796875,44.921875,-19.04296875,0.0
1742783543.9088185,-60.05859375,44.43359375,14.16015625,-49.8046875,0.0
1742783543.9127238,-210.9375,-173.828125,-23.4375,-182.12890625,0.0
1742783543.916629,-161.1328125,-109.375,-0.9765625,-145.01953125,0.0
1742783543.920545,-2.44140625,196.77734375,40.52734375,-6.8359375,0.0
1742783543.9244504,-9.27734375,262.6953125,38.0859375,-20.01953125,0.0
1742783543.928356,-182.12890625,-97.16796875,-11.23046875,-170.8984375,0.0
1742783543.9322612,-166.50390625,-255.859375,-25.87890625,-159.66796875,0.0
1742783543.9361665,-5.859375,82.51953125,9.765625,-15.13671875,0.0
1742783543.9400718,20.5078125,265.13671875,36.62109375,24.4140625,0.0
1742783543.943977,-125.0,-83.0078125,-3.41796875,-93.26171875,0.0
1742783543.9478824,-193.359375,-314.453125,-27.83203125,-147.94921875,0.0
1742783543.9517877,-47.36328125,-163.57421875,10.25390625,-43.45703125,0.0
1742783543.955693,65.4296875,216.796875,41.015625,28.3203125,0.0
1742783543.9595983,-60.05859375,102.05078125,11.71875,-50.78125,0.0
1742783543.9635038,-192.3828125,-373.046875,-40.52734375,-144.53125,0.0
1742783543.9674191,-90.33203125,-164.0625,-21.97265625,-67.3828125,0.0
1742783543.9713244,71.77734375,333.49609375,24.4140625,49.31640625,0.0
1742783543.9752297,18.06640625,250.48828125,8.30078125,-0.48828125,0.0
1742783543.979135,-142.08984375,-317.3828125,-47.8515625,-101.07421875,0.0
1742783543.9830403,-72.265625,-293.45703125,-51.7578125,-50.29296875,0.0
1742783543.9869456,138.18359375,177.734375,-0.9765625,82.03125,0.0
1742783543.990851,129.39453125,308.59375,7.32421875,82.51953125,0.0
1742783543.9947562,-68.84765625,-204.1015625,-64.453125,-31.73828125,0.0
1742783543.9986618,-60.546875,-475.09765625,-85.9375,-24.90234375,0.0
1742783544.002567,136.23046875,125.48828125,-16.6015625,110.83984375,0.0
1742783544.0064723,189.453125,402.83203125,1.953125,166.50390625,0.0
1742783544.0103776,31.73828125,-53.22265625,-57.12890625,52.24609375,0.0
1742783544.014292,-44.43359375,-365.234375,-88.8671875,4.39453125,0.0
1742783544.0181973,96.6796875,-54.19921875,-56.15234375,104.98046875,0.0
1742783544.0221028,215.8203125,264.6484375,-25.87890625,181.640625,0.0
1742783544.0260081,91.30859375,11.71875,-52.734375,116.69921875,0.0
1742783544.0299134,-24.90234375,-354.98046875,-85.9375,48.828125,0.0
1742783544.0338187,94.23828125,-240.234375,-68.359375,120.1171875,0.0
1742783544.037724,227.5390625,123.046875,-31.73828125,194.3359375,0.0
1742783544.0416293,178.7109375,-24.4140625,-52.734375,166.9921875,0.0
1742783544.0455346,-1.46484375,-412.109375,-104.98046875,61.5234375,0.0
1742783544.04944,15.13671875,-263.671875,-92.28515625,65.4296875,0.0
1742783544.0533452,202.63671875,61.5234375,-55.6640625,179.6875,0.0
1742783544.0572507,229.98046875,142.578125,-52.24609375,194.82421875,0.0
1742783544.0611644,30.2734375,-187.5,-93.75,64.94140625,0.0
1742783544.0650697,-41.50390625,-347.16796875,-112.3046875,17.578125,0.0
1742783544.068975,137.6953125,-69.82421875,-79.1015625,120.60546875,0.0
1742783544.0728803,229.98046875,196.77734375,-53.22265625,180.6640625,0.0
1742783544.0767856,55.6640625,-62.98828125,-90.33203125,72.265625,0.0
1742783544.0806909,-54.6875,-455.078125,-134.27734375,-12.20703125,0.0
1742783544.0845962,93.75,-296.38671875,-110.3515625,76.171875,0.0
1742783544.0885017,229.98046875,75.1953125,-71.77734375,172.36328125,0.0
1742783544.092407,114.74609375,63.4765625,-79.1015625,95.21484375,0.0
1742783544.0963123,-45.41015625,-323.73046875,-119.140625,-20.5078125,0.0
1742783544.1002176,36.1328125,-291.50390625,-109.86328125,23.4375,0.0
1742783544.1041229,186.03515625,152.83203125,-62.98828125,136.71875,0.0
1742783544.1080358,133.30078125,229.4921875,-61.03515625,117.1875,0.0
1742783544.111941,-50.78125,-260.7421875,-110.83984375,-21.97265625,0.0
1742783544.1158466,-35.64453125,-406.25,-116.69921875,-23.92578125,0.0
1742783544.119752,150.87890625,55.6640625,-63.4765625,99.609375,0.0
1742783544.1236572,186.5234375,278.80859375,-46.38671875,126.953125,0.0
1742783544.1275625,-8.30078125,-182.12890625,-96.6796875,5.859375,0.0
1742783544.1314678,-65.91796875,-584.47265625,-130.37109375,-42.96875,0.0
1742783544.135373,108.3984375,-161.62109375,-79.1015625,53.22265625,0.0
1742783544.1392784,181.640625,371.58203125,-27.34375,109.86328125,0.0
1742783544.1431837,20.99609375,24.4140625,-68.84765625,21.484375,0.0
1742783544.147089,-94.7265625,-454.58984375,-113.28125,-62.98828125,0.0
1742783544.1509945,31.25,-218.75,-87.40234375,4.8828125,0.0
1742783544.1549063,170.41015625,285.15625,-36.62109375,111.328125,0.0
1742783544.1588116,80.56640625,143.5546875,-52.734375,67.3828125,0.0
